 	dT	T (0)	Base X (0)	Base Y (0)	Tip X (0)	Tip Y (0)	||[body,base]|| (0)	||[base,tip]||  (0)	||[base,tip]|| : [body,base] (0)	[base,tip] ? [body,base] (0)	?||[base,tip]|| : [body,base] (0)	||[tip(t-1),tip(t)]|| : [base,tip] (0)	||[base(t-1),base(t)]|| : [base,tip] (0)	T (1)	Base X (1)	Base Y (1)	Tip X (1)	Tip Y (1)	||[body,base]|| (1)	||[base,tip]||  (1)	||[base,tip]|| : [body,base] (1)	[base,tip] ? [body,base] (1)	?||[base,tip]|| : [body,base] (1)	||[tip(t-1),tip(t)]|| : [base,tip] (1)	||[base(t-1),base(t)]|| : [base,tip] (1)	T (2)	Base X (2)	Base Y (2)	Tip X (2)	Tip Y (2)	||[body,base]|| (2)	||[base,tip]||  (2)	||[base,tip]|| : [body,base] (2)	[base,tip] ? [body,base] (2)	?||[base,tip]|| : [body,base] (2)	||[tip(t-1),tip(t)]|| : [base,tip] (2)	||[base(t-1),base(t)]|| : [base,tip] (2)	T (3)	Base X (3)	Base Y (3)	Tip X (3)	Tip Y (3)	||[body,base]|| (3)	||[base,tip]||  (3)	||[base,tip]|| : [body,base] (3)	[base,tip] ? [body,base] (3)	?||[base,tip]|| : [body,base] (3)	||[tip(t-1),tip(t)]|| : [base,tip] (3)	||[base(t-1),base(t)]|| : [base,tip] (3)	T (4)	Base X (4)	Base Y (4)	Tip X (4)	Tip Y (4)	||[body,base]|| (4)	||[base,tip]||  (4)	||[base,tip]|| : [body,base] (4)	[base,tip] ? [body,base] (4)	?||[base,tip]|| : [body,base] (4)	||[tip(t-1),tip(t)]|| : [base,tip] (4)	||[base(t-1),base(t)]|| : [base,tip] (4)	T (5)	Base X (5)	Base Y (5)	Tip X (5)	Tip Y (5)	||[body,base]|| (5)	||[base,tip]||  (5)	||[base,tip]|| : [body,base] (5)	[base,tip] ? [body,base] (5)	?||[base,tip]|| : [body,base] (5)	||[tip(t-1),tip(t)]|| : [base,tip] (5)	||[base(t-1),base(t)]|| : [base,tip] (5)	T (6)	Base X (6)	Base Y (6)	Tip X (6)	Tip Y (6)	||[body,base]|| (6)	||[base,tip]||  (6)	||[base,tip]|| : [body,base] (6)	[base,tip] ? [body,base] (6)	?||[base,tip]|| : [body,base] (6)	||[tip(t-1),tip(t)]|| : [base,tip] (6)	||[base(t-1),base(t)]|| : [base,tip] (6)
1	0.000	1.000	14.885	25.090	15.990	20.085	9.364	5.126	4.972	46.560	NaN	NaN	NaN	1.000	16.055	25.740	17.485	21.190	8.757	4.769	4.674	40.932	NaN	NaN	NaN	1.000	20.280	27.040	24.505	23.595	9.015	5.451	5.238	47.223	NaN	NaN	NaN	1.000	24.895	28.405	28.405	28.275	11.472	3.512	3.052	35.008	NaN	NaN	NaN	1.000	13.260	29.250	6.370	26.780	5.531	7.319	4.670	25.832	NaN	NaN	NaN	1.000	24.570	31.850	28.210	32.110	9.777	3.649	3.440	33.631	NaN	NaN	NaN	2.000	21.450	27.755	21.840	27.625	9.292	0.411	0.360	3.346	NaN	NaN	NaN
2	1.000	2.000	14.820	25.155	15.990	20.215	9.431	5.077	4.897	46.179	-0.076	-0.127	-0.078	2.000	16.055	25.480	17.485	21.190	9.145	4.522	4.411	40.340	-0.263	NaN	0.247	2.000	20.150	27.235	24.635	23.465	8.888	5.859	5.641	50.138	0.403	0.183	-0.225	2.000	25.090	28.405	28.665	28.210	11.706	3.580	3.140	36.758	0.088	0.263	0.195	2.000	13.260	29.250	6.500	26.780	5.654	7.197	4.583	25.908	-0.088	-0.122	NaN	2.000	24.635	31.850	28.405	32.110	9.875	3.779	3.551	35.068	0.111	0.195	0.065	3.000	20.865	27.820	22.295	27.755	8.855	1.431	0.973	8.619	0.613	0.449	-0.587
3	2.000	3.000	14.755	25.155	15.990	20.280	9.433	5.029	4.820	45.465	-0.077	-0.063	-0.016	3.000	15.860	25.610	17.485	21.190	8.998	4.709	4.535	40.809	0.124	NaN	-0.189	3.000	20.085	27.235	24.700	23.400	8.852	6.000	5.758	50.966	0.117	0.092	-0.050	3.000	25.090	28.405	28.925	28.145	11.706	3.844	3.395	39.745	0.255	0.264	NaN	3.000	13.000	29.185	6.500	26.845	5.806	6.908	4.576	26.567	-0.007	-0.022	0.267	3.000	24.700	31.850	28.535	32.240	9.937	3.855	3.580	35.579	0.029	0.142	0.065	4.000	21.645	27.690	22.360	27.690	9.423	0.715	0.498	4.694	-0.475	0.065	0.780
4	3.000	4.000	14.755	25.155	16.055	20.280	9.301	5.045	4.827	44.891	0.007	0.017	NaN	4.000	15.990	25.545	17.485	21.190	8.951	4.604	4.484	40.142	-0.051	NaN	0.104	4.000	20.085	27.235	24.830	23.270	8.781	6.184	5.962	52.356	0.205	0.183	NaN	4.000	24.700	28.470	29.120	28.145	11.327	4.432	3.925	44.464	0.530	0.194	-0.394	4.000	12.415	29.055	6.500	26.845	6.017	6.314	4.601	27.686	0.025	NaN	0.593	4.000	24.635	31.850	28.665	32.305	9.902	4.056	3.769	37.324	0.189	0.136	-0.065	5.000	21.515	27.820	22.165	27.755	9.470	0.653	0.497	4.711	-6.739E-4	-0.200	-0.142
5	4.000	5.000	14.755	25.155	16.120	20.280	9.492	5.062	4.846	45.998	0.019	0.018	NaN	5.000	15.990	25.350	17.485	21.125	9.353	4.482	4.365	40.826	-0.119	0.061	0.184	5.000	20.020	27.235	25.025	23.205	8.978	6.426	6.152	55.238	0.190	0.193	-0.051	5.000	24.635	28.535	29.380	28.145	11.451	4.761	4.221	48.338	0.296	0.259	-0.070	5.000	11.245	28.990	6.500	26.845	6.761	5.207	4.395	29.710	-0.207	NaN	1.093	5.000	24.505	31.850	28.795	32.370	9.955	4.321	3.971	39.538	0.202	0.137	-0.129	6.000	21.710	27.885	22.165	27.755	9.009	0.473	0.414	3.726	-0.084	NaN	0.170
6	5.000	6.000	14.820	25.025	16.185	20.150	9.245	5.062	4.791	44.286	-0.055	0.143	0.143	6.000	16.120	25.285	17.485	21.190	9.004	4.317	4.198	37.797	-0.167	-0.062	0.103	6.000	20.020	27.300	25.220	23.010	8.383	6.741	6.462	54.173	0.310	0.275	-0.041	6.000	24.960	28.405	29.510	28.080	11.259	4.562	4.056	45.672	-0.165	0.134	0.333	6.000	11.570	29.120	6.565	26.845	6.370	5.498	4.796	30.551	0.401	-0.059	-0.350	6.000	24.570	31.915	28.860	32.435	9.522	4.321	4.031	38.380	0.059	0.072	0.072	NaN	NaN	NaN	NaN	NaN	NaN	NaN	NaN	NaN	NaN	NaN	NaN
7	6.000	7.000	14.820	25.090	16.315	20.085	9.176	5.224	4.925	45.191	0.134	0.099	-0.062	7.000	16.250	24.830	17.485	21.125	9.475	3.905	3.812	36.124	-0.385	0.062	0.473	7.000	19.955	27.300	25.350	22.880	8.383	6.974	6.679	55.990	0.217	0.183	-0.050	7.000	24.960	28.405	29.770	28.080	11.315	4.821	4.285	48.486	0.229	0.259	NaN	7.000	11.960	29.250	6.565	26.845	6.003	5.907	4.984	29.921	0.188	NaN	-0.409	7.000	24.505	31.850	28.990	32.565	9.538	4.542	4.160	39.677	0.129	0.149	-0.074	NaN	NaN	NaN	NaN	NaN	NaN	NaN	NaN	NaN	NaN	NaN	NaN
8	7.000	8.000	14.950	24.960	16.380	20.085	9.297	5.080	4.844	45.034	-0.081	0.018	0.161	8.000	16.315	24.570	17.485	21.125	9.755	3.638	3.560	34.734	-0.252	NaN	0.267	8.000	20.020	27.300	25.480	22.685	8.493	7.149	6.913	58.715	0.234	0.225	0.050	8.000	24.960	28.405	30.095	28.080	11.426	5.145	4.577	52.301	0.292	0.324	NaN	8.000	11.960	29.250	7.020	27.105	5.932	5.386	4.462	26.470	-0.522	-0.521	NaN	8.000	24.570	31.850	29.185	32.565	9.727	4.670	4.295	41.777	0.135	0.193	0.064	NaN	NaN	NaN	NaN	NaN	NaN	NaN	NaN	NaN	NaN	NaN	NaN
9	8.000	9.000	14.950	24.960	16.380	20.020	9.360	5.143	4.950	46.331	0.106	0.062	NaN	9.000	16.250	24.635	17.485	21.190	9.781	3.660	3.584	35.051	0.023	-0.061	-0.083	9.000	20.020	27.365	25.545	22.620	8.645	7.283	7.099	61.372	0.186	0.092	-0.042	9.000	24.505	28.535	30.225	28.080	11.225	5.738	5.136	57.659	0.559	0.130	-0.464	9.000	12.090	29.250	7.215	27.170	5.789	5.300	4.175	24.171	-0.287	-0.205	-0.120	9.000	24.505	31.850	29.445	32.630	9.932	5.001	4.591	45.596	0.296	0.267	-0.064	NaN	NaN	NaN	NaN	NaN	NaN	NaN	NaN	NaN	NaN	NaN	NaN
10	9.000	10.000	14.950	24.960	16.445	20.085	9.425	5.099	4.885	46.044	-0.065	-0.043	NaN	10.000	16.250	24.765	17.485	21.190	9.716	3.782	3.713	36.077	0.129	NaN	-0.123	10.000	20.020	27.365	25.675	22.425	8.698	7.509	7.326	63.717	0.227	0.226	NaN	10.000	24.440	28.405	30.485	28.080	11.272	6.054	5.297	59.703	0.160	0.260	-0.058	10.000	12.090	29.185	7.475	27.235	5.904	5.010	3.903	23.039	-0.273	-0.265	0.025	10.000	24.570	31.850	29.640	32.630	10.011	5.130	4.707	47.126	0.116	0.193	0.064	NaN	NaN	NaN	NaN	NaN	NaN	NaN	NaN	NaN	NaN	NaN	NaN
11	10.000	11.000	15.015	24.960	16.380	20.085	9.426	5.062	4.893	46.124	0.008	-0.018	0.018	11.000	16.250	24.765	17.485	21.125	9.716	3.844	3.777	36.703	0.064	0.062	NaN	11.000	20.020	27.235	25.805	22.360	8.803	7.565	7.334	64.562	0.008	0.141	0.084	11.000	24.375	28.405	30.680	28.080	11.217	6.313	5.508	61.778	0.211	0.195	-0.065	11.000	12.155	29.185	7.605	27.235	5.873	4.950	3.842	22.562	-0.061	-0.119	-0.060	11.000	24.505	31.850	29.770	32.695	9.948	5.332	4.876	48.507	0.169	0.139	-0.064	NaN	NaN	NaN	NaN	NaN	NaN	NaN	NaN	NaN	NaN	NaN	NaN
12	11.000	12.000	14.950	24.960	16.510	20.020	9.425	5.180	4.951	46.661	0.057	0.101	-0.020	12.000	16.315	24.830	17.485	21.125	9.661	3.885	3.837	37.074	0.060	NaN	-0.042	12.000	20.085	27.170	25.935	22.295	8.894	7.615	7.375	65.593	0.041	0.141	0.092	12.000	24.310	28.405	30.940	28.080	11.162	6.638	5.772	64.431	0.265	0.260	-0.065	12.000	12.090	29.055	7.865	27.430	6.018	4.527	3.401	20.470	-0.440	-0.313	0.107	12.000	24.505	31.850	29.965	32.695	9.948	5.525	5.064	50.383	0.189	0.193	NaN	NaN	NaN	NaN	NaN	NaN	NaN	NaN	NaN	NaN	NaN	NaN	NaN
13	12.000	13.000	14.950	24.960	16.575	20.020	9.230	5.200	4.940	45.596	-0.011	0.020	NaN	13.000	16.380	24.635	17.485	21.125	9.661	3.680	3.635	35.118	-0.202	NaN	0.206	13.000	20.150	27.235	26.130	22.100	8.684	7.882	7.693	66.810	0.318	0.275	0.007	13.000	24.505	28.405	31.135	28.080	11.170	6.638	5.840	65.230	0.067	0.195	0.195	13.000	12.285	29.120	8.190	27.560	5.728	4.382	3.286	18.822	-0.115	-0.350	-0.205	13.000	24.505	31.850	30.160	32.695	9.837	5.718	5.292	52.056	0.227	0.193	NaN	NaN	NaN	NaN	NaN	NaN	NaN	NaN	NaN	NaN	NaN	NaN	NaN
14	13.000	14.000	15.015	24.895	16.575	19.955	9.425	5.180	4.951	46.661	0.011	0.062	0.082	14.000	16.380	24.765	17.485	21.125	9.661	3.804	3.763	36.360	0.129	NaN	-0.124	14.000	20.150	27.170	26.260	21.970	8.841	8.023	7.799	68.952	0.106	0.183	0.042	14.000	24.440	28.405	31.460	28.080	11.182	7.028	6.129	68.542	0.290	0.325	-0.065	14.000	12.610	29.250	8.450	27.690	5.584	4.443	3.160	17.644	-0.126	-0.289	-0.350	14.000	24.570	31.850	30.290	32.760	9.932	5.792	5.314	52.779	0.022	0.139	0.064	NaN	NaN	NaN	NaN	NaN	NaN	NaN	NaN	NaN	NaN	NaN	NaN
15	14.000	15.000	15.080	24.830	16.575	19.890	9.557	5.161	4.969	47.493	0.019	0.062	0.081	15.000	16.445	24.700	17.485	21.125	9.810	3.723	3.695	36.246	-0.069	NaN	0.081	15.000	20.020	27.300	26.325	21.970	8.750	8.256	8.016	70.139	0.217	0.050	-0.183	15.000	24.375	28.470	31.655	28.080	11.182	7.290	6.384	71.394	0.255	0.195	-0.068	15.000	12.805	29.315	8.515	27.755	5.480	4.565	3.072	16.832	-0.088	-0.083	-0.205	15.000	24.570	31.850	30.485	32.760	10.011	5.985	5.492	54.980	0.178	0.193	NaN	NaN	NaN	NaN	NaN	NaN	NaN	NaN	NaN	NaN	NaN	NaN	NaN
16	15.000	16.000	15.145	24.570	16.575	19.760	9.688	5.018	4.847	46.957	-0.123	0.125	0.268	16.000	16.510	24.635	17.485	21.125	9.756	3.643	3.623	35.351	-0.072	NaN	0.080	16.000	20.020	27.365	26.390	21.905	8.593	8.390	8.184	70.329	0.169	0.092	-0.042	16.000	24.310	28.470	31.850	28.080	11.059	7.550	6.630	73.321	0.246	0.195	-0.065	16.000	12.935	29.380	8.580	27.755	5.251	4.648	3.126	16.414	0.055	-0.061	-0.145	16.000	24.570	31.915	30.550	32.825	9.964	6.049	5.599	55.787	0.107	0.074	0.010	NaN	NaN	NaN	NaN	NaN	NaN	NaN	NaN	NaN	NaN	NaN	NaN
17	16.000	17.000	15.145	24.570	16.575	19.825	9.624	4.956	4.782	46.019	-0.065	-0.062	NaN	17.000	16.510	24.505	17.485	21.190	9.820	3.455	3.431	33.690	-0.193	-0.062	0.125	17.000	19.890	27.430	26.520	21.840	8.411	8.672	8.438	70.972	0.253	0.141	-0.141	17.000	24.245	28.405	31.915	28.210	11.003	7.672	6.627	72.919	-0.003	0.062	-0.063	17.000	13.000	29.380	8.710	27.885	5.166	4.543	2.957	15.278	-0.169	-0.166	-0.061	17.000	24.570	31.850	30.680	32.825	9.964	6.187	5.710	56.894	0.111	0.128	-0.010	NaN	NaN	NaN	NaN	NaN	NaN	NaN	NaN	NaN	NaN	NaN	NaN
18	17.000	18.000	15.145	24.505	16.510	19.890	9.624	4.813	4.650	44.751	-0.132	-0.081	0.062	18.000	16.510	24.245	17.485	21.125	10.013	3.269	3.237	32.410	-0.194	0.062	0.248	18.000	19.890	27.430	26.585	21.645	8.359	8.848	8.642	72.239	0.204	0.177	NaN	18.000	24.115	28.405	32.110	28.145	10.859	7.999	6.933	75.281	0.306	0.197	-0.130	18.000	13.065	29.510	8.775	27.950	4.961	4.565	3.025	15.007	0.068	-0.083	-0.106	18.000	24.635	31.850	30.810	32.825	10.012	6.251	5.792	57.988	0.082	0.128	0.064	NaN	NaN	NaN	NaN	NaN	NaN	NaN	NaN	NaN	NaN	NaN	NaN
19	18.000	19.000	15.145	24.505	16.510	19.890	9.295	4.813	4.624	42.985	-0.026	NaN	NaN	19.000	16.445	24.245	17.485	21.125	9.652	3.289	3.236	31.231	-0.001	NaN	-0.021	19.000	19.825	27.495	26.715	21.515	7.891	9.123	8.921	70.397	0.279	0.183	-0.092	19.000	24.115	28.405	32.370	28.145	10.523	8.259	7.221	75.987	0.288	0.260	NaN	19.000	13.195	29.510	8.905	28.015	4.686	4.543	3.094	14.500	0.069	-0.144	-0.123	19.000	24.635	31.915	31.005	32.890	9.739	6.444	6.061	59.027	0.269	0.203	0.010	NaN	NaN	NaN	NaN	NaN	NaN	NaN	NaN	NaN	NaN	NaN	NaN
20	19.000	20.000	15.145	24.440	16.575	19.890	9.556	4.769	4.569	43.661	-0.055	0.019	0.062	20.000	16.315	24.440	17.485	21.125	9.643	3.515	3.442	33.196	0.207	NaN	-0.227	20.000	19.825	27.495	26.845	21.450	8.086	9.264	9.035	73.059	0.114	0.141	NaN	20.000	23.985	28.535	32.565	28.080	10.501	8.592	7.566	79.447	0.345	0.198	-0.137	20.000	13.325	29.510	8.970	28.080	4.793	4.584	2.874	13.774	-0.221	-0.082	-0.124	20.000	24.635	31.915	31.135	32.890	9.842	6.573	6.147	60.502	0.086	0.129	NaN	NaN	NaN	NaN	NaN	NaN	NaN	NaN	NaN	NaN	NaN	NaN	NaN
21	20.000	21.000	15.600	22.295	16.510	19.890	10.745	2.571	2.456	26.385	-2.113	-0.023	2.167	21.000	16.315	24.440	17.485	21.125	8.688	3.515	3.458	30.040	0.015	NaN	NaN	21.000	19.890	27.495	26.975	21.385	7.411	9.356	9.277	68.758	0.242	0.141	0.049	21.000	23.920	28.470	32.760	28.080	10.058	8.849	8.060	81.069	0.495	0.195	-0.062	21.000	13.325	29.575	8.970	28.145	3.809	4.584	3.151	12.003	0.277	-0.020	-0.020	21.000	24.570	31.915	31.265	32.890	9.683	6.766	6.540	63.329	0.393	0.129	-0.064	NaN	NaN	NaN	NaN	NaN	NaN	NaN	NaN	NaN	NaN	NaN	NaN
22	21.000	22.000	15.600	22.295	16.510	19.890	10.745	2.571	2.456	26.385	NaN	NaN	NaN	22.000	16.315	24.310	17.485	21.125	8.816	3.393	3.328	29.338	-0.130	NaN	0.122	22.000	19.890	27.430	27.105	21.190	7.460	9.539	9.454	70.524	0.176	0.226	0.043	22.000	23.920	28.470	32.955	28.080	10.058	9.043	8.234	82.818	0.174	0.195	NaN	22.000	13.325	29.575	8.970	28.145	3.809	4.584	3.151	12.003	NaN	NaN	NaN	22.000	24.570	31.915	31.330	32.890	9.683	6.830	6.605	63.954	0.065	0.064	NaN	NaN	NaN	NaN	NaN	NaN	NaN	NaN	NaN	NaN	NaN	NaN	NaN
23	22.000	23.000	15.665	22.295	16.575	19.890	10.883	2.571	2.464	26.816	0.008	0.023	0.023	23.000	16.315	24.245	17.485	21.125	9.019	3.332	3.266	29.457	-0.062	NaN	0.061	23.000	19.890	27.430	27.235	21.125	7.601	9.680	9.582	72.826	0.128	0.141	NaN	23.000	23.855	28.470	33.150	28.080	10.117	9.303	8.421	85.201	0.187	0.195	-0.065	23.000	13.455	29.575	8.970	28.145	3.850	4.707	2.993	11.526	-0.158	NaN	-0.124	23.000	24.570	31.915	31.395	32.890	9.763	6.894	6.647	64.896	0.042	0.064	NaN	NaN	NaN	NaN	NaN	NaN	NaN	NaN	NaN	NaN	NaN	NaN	NaN
24	23.000	24.000	15.600	22.425	16.575	19.825	10.749	2.777	2.659	28.582	0.195	0.061	-0.145	24.000	16.315	24.310	17.485	21.125	8.955	3.393	3.331	29.829	0.065	NaN	-0.061	24.000	19.760	27.625	27.365	21.125	7.368	10.004	9.906	72.987	0.324	0.099	-0.226	24.000	24.050	28.405	33.280	28.015	10.320	9.238	8.376	86.444	-0.045	0.133	0.198	24.000	11.830	29.185	8.970	28.145	5.005	3.043	2.569	12.861	-0.424	NaN	1.660	24.000	24.505	31.850	31.395	32.890	9.707	6.968	6.689	64.930	0.042	NaN	-0.074	NaN	NaN	NaN	NaN	NaN	NaN	NaN	NaN	NaN	NaN	NaN	NaN
25	24.000	25.000	15.730	22.425	16.705	19.760	10.693	2.838	2.734	29.233	0.075	0.106	0.045	25.000	16.445	24.050	17.485	21.125	9.169	3.104	3.059	28.050	-0.272	NaN	0.289	25.000	19.630	27.690	27.430	21.060	7.185	10.237	10.130	72.780	0.224	0.092	-0.141	25.000	24.050	28.405	33.410	28.015	10.291	9.368	8.513	87.610	0.138	0.130	NaN	25.000	12.155	29.250	9.035	28.145	4.707	3.310	2.710	12.755	0.140	-0.061	-0.328	25.000	24.505	31.850	31.525	32.890	9.699	7.097	6.830	66.248	0.142	0.129	NaN	NaN	NaN	NaN	NaN	NaN	NaN	NaN	NaN	NaN	NaN	NaN	NaN
26	25.000	26.000	15.730	22.490	16.705	19.760	10.758	2.899	2.798	30.103	0.064	NaN	-0.061	26.000	16.510	24.245	17.485	21.125	9.116	3.269	3.244	29.571	0.185	NaN	-0.167	26.000	19.695	27.625	27.560	21.125	7.375	10.203	10.057	74.166	-0.073	0.059	0.092	26.000	24.050	28.405	33.605	28.015	10.351	9.563	8.642	89.447	0.128	0.195	NaN	26.000	12.220	29.250	9.035	28.145	4.777	3.371	2.694	12.869	-0.016	NaN	-0.061	26.000	24.505	31.850	31.655	32.955	9.716	7.235	6.924	67.275	0.093	0.138	NaN	NaN	NaN	NaN	NaN	NaN	NaN	NaN	NaN	NaN	NaN	NaN	NaN
27	26.000	27.000	15.795	22.490	16.640	19.760	8.119	2.858	2.609	21.180	-0.189	-0.019	0.019	27.000	16.510	24.505	17.485	21.125	6.051	3.518	3.335	20.179	0.091	NaN	-0.250	27.000	19.695	27.690	27.625	21.125	4.091	10.295	10.260	41.971	0.203	0.050	-0.041	27.000	24.050	28.340	33.800	27.885	7.608	9.761	9.462	71.986	0.820	0.201	0.003	27.000	12.285	29.250	8.970	28.145	4.670	3.494	3.492	16.304	0.798	0.062	-0.062	27.000	24.505	31.850	31.850	33.020	7.843	7.438	7.437	58.335	0.513	0.203	NaN	NaN	NaN	NaN	NaN	NaN	NaN	NaN	NaN	NaN	NaN	NaN	NaN
28	27.000	28.000	15.795	22.490	16.640	19.695	8.233	2.920	2.694	22.177	0.085	0.062	NaN	28.000	16.575	24.440	17.485	21.125	6.240	3.438	3.305	20.626	-0.030	NaN	0.080	28.000	19.630	27.755	27.885	21.125	4.183	10.588	10.537	44.075	0.278	0.203	-0.091	28.000	23.985	28.405	33.995	27.885	7.689	10.023	9.716	74.706	0.254	0.195	-0.068	28.000	12.480	29.315	8.970	28.145	4.378	3.700	3.700	16.199	0.208	NaN	-0.206	28.000	24.505	31.850	31.980	33.085	7.952	7.576	7.575	60.236	0.138	0.139	NaN	NaN	NaN	NaN	NaN	NaN	NaN	NaN	NaN	NaN	NaN	NaN	NaN
29	28.000	29.000	15.860	22.490	16.705	19.630	10.840	2.982	2.928	31.738	0.234	0.081	0.018	29.000	16.770	23.595	17.485	21.060	9.879	2.634	2.626	25.946	-0.679	0.063	0.866	29.000	19.890	27.365	28.145	20.930	7.791	10.467	10.258	79.916	-0.279	0.325	0.445	29.000	23.985	28.340	34.190	27.950	10.412	10.212	9.168	95.455	-0.547	0.192	0.002	29.000	12.805	29.380	9.035	28.145	4.390	3.967	2.828	12.413	-0.872	-0.062	-0.329	29.000	24.505	31.850	32.045	33.085	9.790	7.640	7.279	71.259	-0.297	0.064	NaN	NaN	NaN	NaN	NaN	NaN	NaN	NaN	NaN	NaN	NaN	NaN	NaN
30	29.000	30.000	15.795	22.815	16.705	19.630	8.104	3.312	3.073	24.902	0.145	NaN	-0.330	30.000	16.770	23.530	17.485	21.060	7.346	2.571	2.482	18.235	-0.144	NaN	0.062	30.000	20.150	27.105	28.405	20.800	5.151	10.387	10.240	52.745	-0.018	0.286	0.364	30.000	23.855	28.405	34.320	27.950	7.626	10.475	10.048	76.629	0.880	0.130	-0.133	30.000	12.870	29.380	9.035	28.145	4.056	4.029	4.020	16.304	1.192	NaN	-0.062	30.000	24.505	31.850	31.915	33.020	7.925	7.502	7.498	59.420	0.219	-0.139	NaN	NaN	NaN	NaN	NaN	NaN	NaN	NaN	NaN	NaN	NaN	NaN	NaN
31	30.000	31.000	15.795	23.010	16.705	19.565	7.861	3.563	3.306	25.984	0.233	0.063	-0.189	31.000	16.770	23.530	17.485	21.190	7.280	2.447	2.340	17.035	-0.142	-0.124	NaN	31.000	20.085	27.300	28.665	20.605	4.828	10.883	10.759	51.942	0.519	0.325	-0.171	31.000	23.855	28.340	34.450	28.015	7.503	10.600	10.111	75.868	0.063	0.128	0.002	31.000	13.195	29.445	9.035	28.145	3.827	4.358	4.350	16.647	0.330	NaN	-0.330	31.000	24.505	31.850	31.850	33.020	7.805	7.438	7.435	58.030	-0.062	-0.064	NaN	NaN	NaN	NaN	NaN	NaN	NaN	NaN	NaN	NaN	NaN	NaN	NaN
32	31.000	32.000	15.730	23.335	16.705	19.565	7.611	3.894	3.601	27.412	0.296	NaN	-0.331	32.000	16.770	23.530	17.485	21.125	7.345	2.509	2.405	17.665	0.065	0.062	NaN	32.000	19.955	27.430	28.795	20.540	4.692	11.208	11.060	51.891	0.302	0.142	-0.182	32.000	23.855	28.340	34.515	27.885	7.525	10.670	10.190	76.680	0.079	0.070	NaN	32.000	13.325	29.575	9.035	28.145	3.682	4.522	4.519	16.638	0.169	NaN	-0.164	32.000	24.440	31.785	31.785	33.020	7.724	7.448	7.439	57.460	0.004	-0.064	-0.075	NaN	NaN	NaN	NaN	NaN	NaN	NaN	NaN	NaN	NaN	NaN	NaN
33	32.000	33.000	15.860	23.270	16.770	19.565	7.716	3.815	3.583	27.648	-0.018	0.016	0.094	33.000	16.770	23.465	17.485	21.125	7.475	2.447	2.346	17.538	-0.059	NaN	0.062	33.000	20.020	27.495	28.860	20.540	4.781	11.248	11.141	53.265	0.081	0.051	0.011	33.000	23.790	28.340	34.580	27.885	7.547	10.800	10.286	77.630	0.096	0.065	-0.065	33.000	13.585	29.705	9.035	28.145	3.356	4.810	4.805	16.123	0.286	NaN	-0.288	33.000	24.440	31.785	31.720	33.020	7.781	7.384	7.371	57.354	-0.068	-0.064	NaN	NaN	NaN	NaN	NaN	NaN	NaN	NaN	NaN	NaN	NaN	NaN	NaN
34	33.000	34.000	15.795	23.465	16.770	19.565	7.595	4.020	3.755	28.519	0.172	NaN	-0.205	34.000	16.835	23.400	17.485	21.125	7.606	2.366	2.286	17.386	-0.060	NaN	0.080	34.000	20.280	27.170	28.990	20.540	5.243	10.946	10.789	56.564	-0.352	0.103	0.404	34.000	23.660	28.405	34.775	27.885	7.425	11.127	10.593	78.657	0.307	0.195	-0.133	34.000	13.585	29.705	8.970	28.145	3.380	4.872	4.860	16.427	0.055	0.062	NaN	34.000	24.440	31.785	31.655	33.020	7.774	7.320	7.303	56.771	-0.069	-0.064	NaN	NaN	NaN	NaN	NaN	NaN	NaN	NaN	NaN	NaN	NaN	NaN	NaN
35	34.000	35.000	15.730	23.595	16.835	19.565	7.483	4.179	3.837	28.713	0.082	0.017	-0.143	35.000	16.835	23.530	17.550	21.060	7.475	2.571	2.476	18.510	0.190	0.081	-0.125	35.000	20.475	26.975	29.185	20.605	5.474	10.791	10.584	57.942	-0.204	0.119	0.273	35.000	23.790	28.340	34.840	27.950	7.509	11.057	10.469	78.610	-0.124	0.063	0.132	35.000	13.715	29.705	9.035	28.145	3.320	4.933	4.917	16.325	0.057	-0.062	-0.123	35.000	24.440	31.785	31.655	33.020	7.710	7.320	7.303	56.302	4.245E-4	NaN	NaN	NaN	NaN	NaN	NaN	NaN	NaN	NaN	NaN	NaN	NaN	NaN	NaN
36	35.000	36.000	15.730	23.660	16.835	19.565	7.474	4.241	3.916	29.267	0.079	NaN	-0.063	36.000	16.835	23.400	17.550	20.930	7.671	2.571	2.482	19.038	0.006	0.125	0.125	36.000	20.475	26.975	29.445	20.605	5.566	11.002	10.762	59.902	0.178	0.212	NaN	36.000	23.985	28.340	34.970	27.885	7.775	10.994	10.445	81.213	-0.024	0.133	0.195	36.000	13.650	29.705	8.970	28.145	3.346	4.933	4.909	16.427	-0.008	0.062	0.062	36.000	24.440	31.785	31.655	32.955	7.768	7.309	7.292	56.645	-0.011	-0.010	NaN	NaN	NaN	NaN	NaN	NaN	NaN	NaN	NaN	NaN	NaN	NaN	NaN
37	36.000	37.000	15.730	23.725	16.835	19.565	7.309	4.304	3.929	28.722	0.014	NaN	-0.063	37.000	16.770	23.595	17.550	20.865	7.346	2.839	2.716	19.950	0.234	0.062	-0.205	37.000	20.540	26.845	29.575	20.475	5.479	11.055	10.764	58.973	0.002	0.181	0.128	37.000	23.985	28.405	35.100	27.885	7.525	11.127	10.640	80.068	0.195	0.130	-0.003	37.000	13.585	29.705	8.970	28.080	3.538	4.893	4.892	17.306	-0.017	0.022	0.061	37.000	24.505	31.785	31.655	32.955	7.652	7.245	7.235	55.364	-0.057	NaN	0.064	NaN	NaN	NaN	NaN	NaN	NaN	NaN	NaN	NaN	NaN	NaN	NaN
38	37.000	38.000	15.665	23.920	16.835	19.630	7.309	4.447	4.047	29.583	0.118	-0.063	-0.205	38.000	16.835	23.855	17.550	20.865	7.280	3.074	2.990	21.767	0.274	NaN	-0.238	38.000	20.345	27.170	29.705	20.540	5.295	11.470	11.168	59.142	0.405	0.069	-0.347	38.000	23.920	28.340	35.100	27.885	7.616	11.189	10.567	80.482	-0.074	NaN	-0.062	38.000	13.650	29.770	8.970	28.145	3.465	4.954	4.942	17.124	0.050	-0.021	-0.083	38.000	24.505	31.785	31.655	32.955	7.697	7.245	7.223	55.601	-0.012	NaN	NaN	NaN	NaN	NaN	NaN	NaN	NaN	NaN	NaN	NaN	NaN	NaN	NaN
39	38.000	39.000	15.730	23.920	16.835	19.760	7.171	4.304	3.940	28.253	-0.107	-0.126	0.017	39.000	16.835	23.660	17.550	20.930	7.345	2.822	2.730	20.052	-0.260	-0.063	0.189	39.000	20.280	27.170	29.835	20.540	5.155	11.630	11.317	58.343	0.149	0.107	-0.053	39.000	23.920	28.405	35.165	27.885	7.547	11.257	10.736	81.023	0.169	0.065	-0.003	39.000	12.415	29.510	9.035	28.080	4.666	3.670	3.660	17.077	-1.282	-0.035	1.239	39.000	24.440	31.785	31.655	32.955	7.645	7.309	7.297	55.783	0.073	NaN	-0.064	NaN	NaN	NaN	NaN	NaN	NaN	NaN	NaN	NaN	NaN	NaN	NaN
40	39.000	40.000	15.730	23.855	16.770	19.890	9.781	4.099	4.035	39.470	0.095	-0.142	0.063	40.000	16.770	24.180	17.550	21.060	9.599	3.216	3.211	30.826	0.481	-0.126	-0.520	40.000	20.215	27.300	29.900	20.475	8.214	11.848	11.446	94.023	0.129	0.091	-0.128	40.000	23.920	28.340	35.230	27.885	10.401	11.319	9.984	103.846	-0.752	0.065	0.003	40.000	12.675	29.575	9.035	28.080	4.628	3.935	3.091	14.306	-0.569	NaN	-0.265	40.000	24.505	31.785	31.655	32.955	9.727	7.245	6.805	66.189	-0.492	NaN	0.064	NaN	NaN	NaN	NaN	NaN	NaN	NaN	NaN	NaN	NaN	NaN	NaN
41	40.000	41.000	15.860	23.465	16.770	20.020	10.051	3.563	3.513	35.313	-0.522	-0.126	0.410	41.000	16.770	23.400	17.485	21.125	10.238	2.385	2.366	24.222	-0.845	-0.081	0.744	41.000	20.150	27.300	29.900	20.475	8.073	11.901	11.501	92.844	0.054	NaN	-0.053	41.000	23.920	28.405	35.230	27.885	10.304	11.322	10.102	104.087	0.118	NaN	-0.003	41.000	12.675	29.640	9.100	28.145	4.459	3.875	3.110	13.866	0.018	-0.085	-0.025	41.000	24.505	31.785	31.590	32.955	9.703	7.181	6.773	65.720	-0.032	-0.064	NaN	NaN	NaN	NaN	NaN	NaN	NaN	NaN	NaN	NaN	NaN	NaN	NaN
42	41.000	42.000	15.990	23.335	16.705	20.020	8.450	3.391	3.309	27.965	-0.204	-0.014	0.154	42.000	16.705	23.530	17.485	21.060	8.281	2.590	2.524	20.897	0.158	0.062	-0.144	42.000	20.150	27.300	30.095	20.605	6.073	11.989	11.650	70.752	0.149	0.089	NaN	42.000	23.855	28.405	35.360	27.885	8.501	11.517	10.763	91.497	0.661	0.130	-0.065	42.000	13.390	30.290	9.165	28.210	3.056	4.709	4.702	14.369	1.593	-0.087	-0.929	42.000	24.505	31.785	31.590	32.955	8.450	7.181	7.085	59.868	0.312	NaN	NaN	NaN	NaN	NaN	NaN	NaN	NaN	NaN	NaN	NaN	NaN	NaN	NaN
43	42.000	43.000	15.925	23.270	16.705	20.085	7.530	3.279	3.067	23.098	-0.242	-0.063	0.048	43.000	16.835	23.400	17.550	20.865	7.345	2.634	2.535	18.620	0.011	0.205	0.160	43.000	20.020	27.495	30.290	20.605	4.550	12.367	12.109	55.102	0.459	0.162	-0.217	43.000	23.985	28.470	35.425	27.820	7.503	11.458	11.099	83.275	0.335	0.069	0.126	43.000	13.455	30.355	9.100	28.210	3.402	4.855	4.572	15.556	-0.130	0.058	-0.087	43.000	24.375	31.785	31.590	32.955	7.611	7.309	7.307	55.618	0.222	NaN	-0.128	NaN	NaN	NaN	NaN	NaN	NaN	NaN	NaN	NaN	NaN	NaN	NaN
44	43.000	44.000	15.990	23.270	16.705	20.020	7.697	3.328	3.178	24.463	0.111	0.063	0.014	44.000	16.835	23.400	17.550	20.735	7.543	2.759	2.683	20.234	0.148	0.126	NaN	44.000	20.020	27.495	30.550	20.475	4.826	12.655	12.386	59.775	0.276	0.288	NaN	44.000	23.920	28.470	35.490	27.820	7.688	11.588	11.165	85.835	0.067	0.065	-0.065	44.000	13.585	30.225	9.100	28.210	3.138	4.917	4.826	15.142	0.254	NaN	-0.065	44.000	24.375	31.785	31.655	32.955	7.781	7.373	7.364	57.299	0.057	0.064	NaN	NaN	NaN	NaN	NaN	NaN	NaN	NaN	NaN	NaN	NaN	NaN	NaN
45	44.000	45.000	15.990	23.140	16.705	20.085	7.887	3.138	2.994	23.609	-0.184	-0.063	0.127	45.000	16.835	23.400	17.615	20.540	7.609	2.964	2.885	21.953	0.202	0.205	NaN	45.000	20.410	26.975	30.680	20.475	5.563	12.154	11.788	65.580	-0.597	0.110	0.608	45.000	23.920	28.470	35.555	27.755	7.770	11.657	11.232	87.272	0.066	0.069	NaN	45.000	13.780	30.160	9.100	28.145	2.920	5.095	5.063	14.783	0.237	0.026	-0.153	45.000	24.375	31.785	31.655	32.955	7.839	7.373	7.360	57.697	-0.004	NaN	NaN	NaN	NaN	NaN	NaN	NaN	NaN	NaN	NaN	NaN	NaN	NaN	NaN
46	45.000	46.000	15.990	23.140	16.705	20.150	7.523	3.074	2.891	21.746	-0.103	-0.063	NaN	46.000	16.900	23.270	17.615	20.410	7.345	2.948	2.866	21.053	-0.019	0.126	0.142	46.000	20.215	27.170	30.810	20.410	4.826	12.568	12.245	59.099	0.457	0.145	-0.269	46.000	23.855	28.405	35.685	27.755	7.360	11.848	11.479	84.483	0.248	0.130	-0.061	46.000	13.715	30.160	8.970	28.080	3.153	5.181	4.995	15.751	-0.067	0.145	0.060	46.000	24.375	31.785	31.655	32.955	7.630	7.373	7.373	56.260	0.013	NaN	NaN	NaN	NaN	NaN	NaN	NaN	NaN	NaN	NaN	NaN	NaN	NaN	NaN
47	46.000	47.000	15.860	23.075	16.640	20.280	7.538	2.902	2.671	20.132	-0.220	-0.143	0.028	47.000	16.900	23.270	17.680	20.280	7.280	3.090	2.997	21.818	0.131	0.142	NaN	47.000	20.215	27.235	31.005	20.345	4.734	12.802	12.528	59.311	0.282	0.199	-0.035	47.000	23.920	28.405	35.815	27.690	7.403	11.916	11.592	85.810	0.113	0.134	0.065	47.000	13.845	30.160	8.905	28.080	3.015	5.360	5.168	15.582	0.172	0.060	-0.120	47.000	24.310	31.720	31.590	32.955	7.566	7.384	7.383	55.863	0.010	-0.064	-0.075	NaN	NaN	NaN	NaN	NaN	NaN	NaN	NaN	NaN	NaN	NaN	NaN
48	47.000	48.000	15.990	21.840	16.575	20.475	8.092	1.485	1.308	10.584	-1.363	-0.205	1.186	48.000	16.900	23.270	17.680	20.150	6.633	3.216	3.142	20.838	0.145	0.126	NaN	48.000	20.085	27.365	31.135	20.280	4.225	13.126	13.091	55.309	0.563	0.145	-0.180	48.000	23.855	28.470	35.945	27.625	7.292	12.119	12.021	87.652	0.429	0.134	-0.069	48.000	13.845	30.160	8.840	28.015	2.872	5.445	4.790	13.757	-0.377	0.085	NaN	48.000	23.920	31.590	31.655	32.955	7.410	7.855	7.842	58.115	0.459	0.064	-0.407	NaN	NaN	NaN	NaN	NaN	NaN	NaN	NaN	NaN	NaN	NaN	NaN
49	48.000	49.000	15.925	21.710	16.445	20.605	8.286	1.221	1.056	8.750	-0.252	-0.173	0.090	49.000	17.030	22.880	17.745	19.955	7.096	3.011	2.960	21.002	-0.182	0.205	0.410	49.000	20.085	27.430	31.265	20.215	4.277	13.306	13.281	56.805	0.190	0.144	-0.035	49.000	23.855	28.470	36.075	27.625	7.368	12.249	12.137	89.431	0.116	0.130	NaN	49.000	13.845	30.095	8.710	27.885	2.798	5.590	5.027	14.065	0.237	0.171	0.026	49.000	23.985	31.590	31.590	32.955	7.523	7.727	7.720	58.077	-0.122	-0.064	0.064	NaN	NaN	NaN	NaN	NaN	NaN	NaN	NaN	NaN	NaN	NaN	NaN
50	49.000	50.000	15.860	21.775	16.445	20.735	8.080	1.193	0.944	7.630	-0.112	-0.113	-0.089	50.000	17.030	22.880	17.810	19.890	6.890	3.090	2.990	20.601	0.030	0.079	NaN	50.000	19.955	27.560	31.330	20.215	3.666	13.540	13.504	49.504	0.223	0.055	-0.180	50.000	23.790	28.470	36.140	27.690	6.884	12.375	12.275	84.500	0.138	0.061	-0.065	50.000	13.845	29.900	8.645	27.820	3.188	5.601	5.111	16.292	0.084	0.084	0.072	50.000	24.375	31.720	31.590	32.955	7.599	7.320	7.290	55.402	-0.430	NaN	0.406	NaN	NaN	NaN	NaN	NaN	NaN	NaN	NaN	NaN	NaN	NaN	NaN
51	50.000	51.000	16.055	21.580	16.380	20.800	9.165	0.845	0.780	7.149	-0.164	-0.085	0.255	51.000	17.030	22.880	17.745	19.695	7.925	3.264	3.249	25.747	0.259	0.176	NaN	51.000	20.020	27.430	31.135	20.215	5.168	13.251	13.155	67.989	-0.348	-0.164	0.125	51.000	23.790	28.470	36.270	27.690	8.063	12.504	12.193	98.307	-0.082	0.130	NaN	51.000	13.780	29.835	8.645	27.820	2.450	5.516	5.516	13.516	0.405	NaN	0.084	51.000	24.180	31.720	31.590	32.955	8.183	7.512	7.504	61.410	0.214	NaN	-0.192	NaN	NaN	NaN	NaN	NaN	NaN	NaN	NaN	NaN	NaN	NaN	NaN
52	51.000	52.000	16.055	21.580	16.445	20.930	8.466	0.758	0.625	5.290	-0.155	-0.078	NaN	52.000	17.095	22.750	17.680	19.500	7.299	3.302	3.283	23.964	0.035	0.180	0.139	52.000	20.020	27.430	31.070	20.215	4.316	13.197	13.166	56.826	0.011	-0.054	NaN	52.000	23.790	28.470	36.530	27.560	7.382	12.772	12.645	93.339	0.452	0.269	NaN	52.000	13.650	29.770	8.645	27.820	2.937	5.371	5.158	15.147	-0.358	NaN	0.145	52.000	23.985	31.655	31.590	32.955	7.586	7.715	7.707	58.466	0.203	NaN	-0.203	NaN	NaN	NaN	NaN	NaN	NaN	NaN	NaN	NaN	NaN	NaN	NaN
53	52.000	53.000	16.055	21.580	16.445	20.995	8.227	0.703	0.545	4.487	-0.079	-0.054	NaN	53.000	17.160	22.555	17.615	19.305	7.222	3.282	3.267	23.597	-0.016	0.184	0.202	53.000	20.085	27.300	31.005	20.345	4.082	12.947	12.902	52.669	-0.264	-0.125	0.125	53.000	23.855	28.470	36.660	27.560	7.139	12.837	12.757	91.074	0.112	0.130	0.065	53.000	13.650	29.705	8.775	27.950	3.186	5.181	4.910	15.641	-0.248	-0.166	0.022	53.000	24.180	31.720	31.590	32.955	7.599	7.512	7.479	56.835	-0.228	NaN	0.203	NaN	NaN	NaN	NaN	NaN	NaN	NaN	NaN	NaN	NaN	NaN	NaN
54	53.000	54.000	16.055	21.515	16.380	21.060	8.054	0.559	0.412	3.321	-0.133	-0.091	0.053	54.000	17.225	22.425	17.550	19.175	7.088	3.266	3.258	23.090	-0.009	0.123	0.136	54.000	20.085	27.365	30.940	20.410	3.733	12.892	12.880	48.081	-0.022	-0.090	-0.035	54.000	23.790	28.535	36.790	27.495	6.830	13.042	13.015	88.894	0.259	0.135	-0.070	54.000	13.585	29.835	8.645	27.820	3.460	5.335	4.729	16.363	-0.181	0.169	0.011	54.000	24.115	31.720	31.590	32.955	7.422	7.576	7.504	55.690	0.025	NaN	-0.064	NaN	NaN	NaN	NaN	NaN	NaN	NaN	NaN	NaN	NaN	NaN	NaN
55	54.000	55.000	16.055	21.580	16.380	21.060	7.897	0.613	0.463	3.655	0.050	NaN	-0.055	55.000	17.225	22.555	17.550	18.980	6.825	3.590	3.572	24.378	0.314	0.194	-0.129	55.000	20.085	27.365	30.810	20.410	3.446	12.783	12.767	43.991	-0.113	-0.109	NaN	55.000	23.790	28.470	36.790	27.495	6.563	13.037	13.010	85.387	-0.006	NaN	0.005	55.000	13.585	29.640	8.645	27.820	3.714	5.265	4.800	17.830	0.072	NaN	0.067	55.000	24.375	31.785	31.590	32.955	7.482	7.309	7.208	53.932	-0.295	NaN	0.267	NaN	NaN	NaN	NaN	NaN	NaN	NaN	NaN	NaN	NaN	NaN	NaN
56	55.000	56.000	15.925	21.710	16.380	21.060	7.998	0.793	0.585	4.681	0.123	NaN	-0.181	56.000	17.225	22.555	17.550	18.720	7.090	3.849	3.844	27.255	0.273	0.259	NaN	56.000	20.150	27.300	30.745	20.475	3.952	12.603	12.579	49.716	-0.188	-0.090	0.090	56.000	23.790	28.535	36.855	27.495	6.914	13.106	13.063	90.318	0.054	0.065	-0.005	56.000	13.715	29.705	8.580	27.885	3.251	5.448	5.098	16.570	0.297	0.040	-0.144	56.000	23.985	31.590	31.590	32.955	7.286	7.727	7.693	56.049	0.485	NaN	-0.418	NaN	NaN	NaN	NaN	NaN	NaN	NaN	NaN	NaN	NaN	NaN	NaN
57	56.000	57.000	15.990	21.775	16.380	21.060	8.033	0.814	0.674	5.412	0.088	NaN	-0.026	57.000	17.225	22.620	17.550	18.460	7.164	4.173	4.172	29.892	0.328	0.259	-0.065	57.000	20.215	27.170	30.550	20.540	4.316	12.279	12.243	52.842	-0.336	-0.199	0.125	57.000	23.790	28.470	36.855	27.495	7.139	13.101	13.024	92.984	-0.039	NaN	0.005	57.000	13.715	29.640	8.580	27.885	3.058	5.427	5.205	15.916	0.107	NaN	0.021	57.000	23.920	31.590	31.590	32.955	7.378	7.791	7.770	57.325	0.077	NaN	-0.064	NaN	NaN	NaN	NaN	NaN	NaN	NaN	NaN	NaN	NaN	NaN	NaN
58	57.000	58.000	15.925	21.905	16.445	20.995	8.216	1.048	0.866	7.115	0.192	0.089	-0.145	58.000	17.290	22.165	17.550	18.330	7.962	3.844	3.843	30.597	-0.329	0.130	0.458	58.000	20.345	27.040	30.485	20.540	4.852	12.044	11.970	58.085	-0.273	-0.055	0.180	58.000	23.790	28.470	36.855	27.495	7.396	13.101	12.960	95.848	-0.064	NaN	NaN	58.000	13.845	29.705	8.645	27.950	2.758	5.488	5.396	14.880	0.191	-0.082	-0.144	58.000	23.920	31.590	31.590	32.955	7.496	7.791	7.788	58.377	0.018	NaN	NaN	NaN	NaN	NaN	NaN	NaN	NaN	NaN	NaN	NaN	NaN	NaN	NaN
59	58.000	59.000	16.055	21.710	16.510	20.930	7.788	0.903	0.721	5.619	-0.145	0.089	0.234	59.000	17.355	21.385	17.485	18.070	8.069	3.318	3.317	26.770	-0.525	0.257	0.782	59.000	20.280	27.040	30.420	20.540	4.096	12.044	12.025	49.247	0.054	-0.055	-0.055	59.000	23.790	28.470	36.855	27.625	6.894	13.092	13.053	89.993	0.093	-0.008	NaN	59.000	13.520	29.640	8.710	28.015	3.451	5.077	4.710	16.254	-0.685	-0.082	0.329	59.000	23.920	31.590	31.525	32.955	7.278	7.727	7.670	55.821	-0.119	-0.064	NaN	NaN	NaN	NaN	NaN	NaN	NaN	NaN	NaN	NaN	NaN	NaN	NaN
60	59.000	60.000	15.990	21.905	16.510	20.735	7.897	1.280	1.118	8.830	0.397	0.178	-0.205	60.000	17.355	21.450	17.420	17.875	8.345	3.576	3.569	29.786	0.252	0.194	-0.065	60.000	20.345	26.975	30.095	20.735	4.589	11.576	11.534	52.931	-0.491	-0.379	0.090	60.000	23.725	28.665	36.790	27.625	7.106	13.106	13.068	92.866	0.015	-0.065	-0.080	60.000	13.715	29.770	8.775	27.950	2.990	5.265	4.940	14.771	0.230	-0.039	-0.228	60.000	23.920	31.590	31.525	32.955	7.441	7.727	7.708	57.354	0.038	NaN	NaN	NaN	NaN	NaN	NaN	NaN	NaN	NaN	NaN	NaN	NaN	NaN	NaN
61	60.000	61.000	15.925	21.970	16.575	20.670	7.975	1.453	1.224	9.760	0.106	0.087	-0.087	61.000	17.290	21.775	17.420	17.615	8.142	4.162	4.160	33.868	0.591	0.260	-0.327	61.000	20.345	26.910	29.835	20.865	4.661	11.252	11.158	52.001	-0.376	-0.289	0.035	61.000	23.660	28.665	36.790	27.625	7.000	13.171	13.108	91.750	0.040	NaN	-0.065	61.000	13.650	29.705	8.645	27.950	3.126	5.304	5.105	15.958	0.165	0.123	0.083	61.000	23.985	31.655	31.525	32.955	7.425	7.651	7.634	56.683	-0.074	NaN	0.075	NaN	NaN	NaN	NaN	NaN	NaN	NaN	NaN	NaN	NaN	NaN	NaN
62	61.000	62.000	15.860	22.165	16.575	20.540	10.517	1.775	1.688	17.749	0.464	0.119	-0.205	62.000	17.290	21.775	17.420	17.485	11.132	4.292	4.212	46.889	0.052	0.130	NaN	62.000	21.190	25.870	29.835	20.865	9.288	9.989	9.571	88.902	-1.586	NaN	1.252	62.000	23.725	28.665	36.660	27.560	9.748	12.982	12.266	119.568	-0.841	-0.124	0.065	62.000	13.780	29.640	8.580	27.885	3.166	5.488	3.366	10.655	-1.739	0.082	-0.102	62.000	24.115	31.720	31.525	32.955	9.339	7.512	7.254	67.752	-0.379	NaN	0.139	NaN	NaN	NaN	NaN	NaN	NaN	NaN	NaN	NaN	NaN	NaN	NaN
63	62.000	63.000	15.730	22.230	16.640	20.475	7.942	1.977	1.611	12.798	-0.076	0.088	-0.118	63.000	17.225	22.295	17.550	17.225	7.810	5.080	5.080	39.673	0.868	0.268	-0.523	63.000	21.060	26.065	29.835	20.865	5.839	10.200	9.939	58.030	0.367	NaN	-0.211	63.000	23.725	28.665	36.595	27.560	7.037	12.917	12.826	90.254	0.560	-0.065	NaN	63.000	13.780	29.575	8.580	27.885	3.099	5.468	5.410	16.765	2.044	NaN	0.020	63.000	24.180	31.720	31.590	32.955	7.523	7.512	7.502	56.433	0.247	0.064	0.064	NaN	NaN	NaN	NaN	NaN	NaN	NaN	NaN	NaN	NaN	NaN	NaN
64	63.000	64.000	15.730	22.295	16.640	20.345	7.878	2.152	1.803	14.204	0.192	0.118	-0.059	64.000	17.160	22.490	17.550	17.160	7.612	5.344	5.342	40.661	0.262	0.065	-0.199	64.000	20.995	26.325	29.835	20.865	5.614	10.390	10.217	57.359	0.278	NaN	-0.192	64.000	23.725	28.665	36.660	27.495	7.037	12.988	12.903	90.795	0.077	0.071	NaN	64.000	13.780	29.640	8.515	27.950	3.089	5.530	5.457	16.854	0.047	0.042	-0.020	64.000	24.115	31.720	31.590	32.955	7.459	7.576	7.565	56.425	0.063	NaN	-0.064	NaN	NaN	NaN	NaN	NaN	NaN	NaN	NaN	NaN	NaN	NaN	NaN
65	64.000	65.000	15.730	22.230	16.705	20.280	7.791	2.180	1.749	13.626	-0.054	0.087	0.058	65.000	17.160	22.555	17.550	17.030	7.345	5.539	5.528	40.606	0.186	0.130	-0.065	65.000	21.060	26.455	29.835	20.865	5.253	10.404	10.290	54.050	0.074	NaN	-0.015	65.000	23.920	28.730	36.725	27.560	6.925	12.858	12.819	88.763	-0.084	0.059	0.188	65.000	13.845	29.575	8.645	28.015	3.266	5.429	5.329	17.407	-0.127	-0.143	-0.044	65.000	24.245	31.720	31.590	32.955	7.378	7.448	7.423	54.764	-0.142	NaN	0.128	NaN	NaN	NaN	NaN	NaN	NaN	NaN	NaN	NaN	NaN	NaN	NaN
66	65.000	66.000	15.665	22.295	16.705	20.215	7.715	2.326	1.875	14.466	0.126	0.058	-0.087	66.000	17.095	22.750	17.615	16.900	7.151	5.873	5.858	41.895	0.330	0.135	-0.200	66.000	20.865	26.520	29.770	20.930	5.161	10.514	10.390	53.624	0.100	-0.090	-0.200	66.000	24.050	28.665	36.725	27.495	7.192	12.729	12.688	91.247	-0.131	0.006	0.135	66.000	13.780	29.705	8.970	28.145	3.191	5.057	4.896	15.624	-0.433	-0.349	0.022	66.000	23.985	31.655	31.525	32.955	7.236	7.651	7.630	55.212	0.208	-0.064	-0.267	NaN	NaN	NaN	NaN	NaN	NaN	NaN	NaN	NaN	NaN	NaN	NaN
67	66.000	67.000	15.470	22.620	16.705	20.215	7.727	2.704	2.149	16.604	0.274	NaN	-0.378	67.000	17.160	22.685	17.550	16.900	7.547	5.798	5.796	43.746	-0.062	-0.004	0.069	67.000	20.670	26.975	29.250	21.125	5.027	10.385	10.328	51.917	-0.063	-0.539	-0.417	67.000	24.050	28.275	36.010	27.755	7.474	11.971	11.681	87.305	-1.006	-0.726	0.017	67.000	13.195	29.315	9.035	28.145	3.752	4.321	4.320	16.207	-0.577	-0.063	0.669	67.000	23.920	31.590	31.590	32.955	7.215	7.791	7.790	56.205	0.160	0.064	-0.075	NaN	NaN	NaN	NaN	NaN	NaN	NaN	NaN	NaN	NaN	NaN	NaN
68	67.000	68.000	15.275	22.880	16.705	20.215	7.509	3.024	2.310	17.344	0.161	NaN	-0.321	68.000	17.160	22.620	17.550	16.705	7.612	5.928	5.926	45.110	0.130	0.195	0.065	68.000	20.475	27.170	29.185	21.125	4.752	10.602	10.558	50.172	0.230	-0.053	-0.271	68.000	23.790	28.535	35.750	27.690	7.157	11.990	11.821	84.610	0.140	-0.255	-0.278	68.000	13.325	29.250	9.100	28.145	3.643	4.367	4.367	15.907	0.047	-0.063	-0.109	68.000	23.855	31.590	31.590	32.955	7.151	7.855	7.853	56.163	0.064	NaN	-0.064	NaN	NaN	NaN	NaN	NaN	NaN	NaN	NaN	NaN	NaN	NaN	NaN
69	68.000	69.000	15.210	22.945	16.640	20.280	7.523	3.024	2.293	17.251	-0.017	-0.088	-0.088	69.000	17.095	22.750	17.615	16.510	7.544	6.262	6.254	47.185	0.328	0.200	-0.135	69.000	20.345	27.300	29.185	21.125	4.611	10.783	10.734	49.492	0.176	NaN	-0.181	69.000	23.790	28.600	35.685	27.755	7.157	11.925	11.758	84.158	-0.063	-0.069	-0.005	69.000	13.455	29.250	9.100	28.210	3.536	4.477	4.468	15.802	0.102	-0.015	-0.126	69.000	23.855	31.590	31.525	32.955	7.139	7.791	7.790	55.618	-0.063	-0.064	NaN	NaN	NaN	NaN	NaN	NaN	NaN	NaN	NaN	NaN	NaN	NaN	NaN
70	69.000	70.000	15.210	23.075	16.705	20.345	7.362	3.113	2.295	16.896	0.002	-0.026	-0.114	70.000	17.095	22.750	17.615	16.380	7.476	6.391	6.378	47.683	0.124	0.130	NaN	70.000	20.085	27.430	29.120	21.125	4.189	11.017	10.937	45.812	0.203	-0.053	-0.288	70.000	23.725	28.600	35.750	27.690	6.953	12.059	11.905	82.768	0.146	0.070	-0.065	70.000	13.650	29.315	9.100	28.145	3.438	4.698	4.697	16.148	0.229	0.016	-0.205	70.000	23.920	31.590	31.525	32.955	7.088	7.727	7.726	54.756	-0.065	NaN	0.064	NaN	NaN	NaN	NaN	NaN	NaN	NaN	NaN	NaN	NaN	NaN	NaN
71	70.000	71.000	15.080	23.335	16.705	20.345	6.973	3.403	2.416	16.849	0.121	NaN	-0.291	71.000	17.095	22.750	17.550	16.185	7.280	6.581	6.569	47.823	0.191	0.190	NaN	71.000	20.020	27.430	29.185	21.125	3.962	11.124	11.053	43.796	0.117	0.054	-0.054	71.000	23.465	28.665	35.750	27.690	6.578	12.324	12.220	80.385	0.315	NaN	-0.264	71.000	13.585	29.315	9.100	28.145	3.518	4.635	4.629	16.287	-0.068	NaN	0.063	71.000	23.855	31.525	31.525	32.955	6.987	7.802	7.798	54.486	0.073	NaN	-0.076	NaN	NaN	NaN	NaN	NaN	NaN	NaN	NaN	NaN	NaN	NaN	NaN
72	71.000	72.000	15.015	23.400	16.705	20.345	7.483	3.491	2.676	20.022	0.259	NaN	-0.088	72.000	17.095	22.750	17.615	15.925	8.021	6.845	6.845	54.904	0.276	0.264	NaN	72.000	19.955	27.495	29.185	21.125	4.784	11.215	11.100	53.100	0.047	NaN	-0.090	72.000	23.400	28.795	35.945	27.690	7.223	12.594	12.378	89.405	0.158	0.194	-0.076	72.000	13.455	29.315	9.100	28.145	3.314	4.509	4.434	14.695	-0.196	NaN	0.126	72.000	23.855	31.525	31.525	32.890	7.451	7.791	7.771	57.899	-0.028	-0.011	NaN	NaN	NaN	NaN	NaN	NaN	NaN	NaN	NaN	NaN	NaN	NaN	NaN
73	72.000	73.000	14.885	23.530	16.705	20.410	7.143	3.612	2.529	18.066	-0.147	-0.056	-0.178	73.000	17.030	23.010	17.680	15.665	7.415	7.374	7.363	54.595	0.519	0.265	-0.265	73.000	19.955	27.495	28.795	21.320	4.324	10.783	10.688	46.217	-0.413	-0.431	NaN	73.000	23.335	28.795	36.010	27.690	6.763	12.723	12.569	85.007	0.192	0.065	-0.065	73.000	13.195	29.250	9.100	28.145	3.762	4.241	4.236	15.932	-0.198	NaN	0.268	73.000	23.855	31.525	31.590	32.955	7.171	7.866	7.863	56.383	0.092	0.076	NaN	NaN	NaN	NaN	NaN	NaN	NaN	NaN	NaN	NaN	NaN	NaN	NaN
74	73.000	74.000	15.015	23.335	16.705	20.345	7.189	3.435	2.465	17.720	-0.064	0.057	0.234	74.000	17.095	22.815	17.680	15.340	7.480	7.498	7.491	56.028	0.128	0.324	0.199	74.000	20.020	27.495	28.795	21.320	4.237	10.730	10.668	45.208	-0.019	NaN	0.053	74.000	23.270	28.795	36.075	27.690	6.606	12.853	12.723	84.052	0.154	0.065	-0.065	74.000	13.455	29.380	9.100	28.145	3.500	4.527	4.526	15.844	0.291	NaN	-0.286	74.000	23.790	31.460	31.590	32.955	7.053	7.942	7.940	55.998	0.077	NaN	-0.076	NaN	NaN	NaN	NaN	NaN	NaN	NaN	NaN	NaN	NaN	NaN	NaN
75	74.000	75.000	14.950	23.400	16.705	20.345	6.907	3.523	2.359	16.292	-0.106	NaN	-0.089	75.000	17.095	22.750	17.810	15.145	7.215	7.639	7.605	54.870	0.114	0.206	0.065	75.000	20.020	27.495	28.795	21.320	3.828	10.730	10.688	40.919	0.020	NaN	NaN	75.000	23.725	28.600	36.075	27.625	6.769	12.388	12.293	83.211	-0.430	0.005	0.469	75.000	13.325	29.315	9.100	28.145	3.826	4.384	4.362	16.689	-0.164	NaN	0.143	75.000	23.855	31.525	31.590	32.955	6.938	7.866	7.858	54.519	-0.081	NaN	0.076	NaN	NaN	NaN	NaN	NaN	NaN	NaN	NaN	NaN	NaN	NaN	NaN
76	75.000	76.000	14.885	23.530	16.640	20.345	6.865	3.637	2.451	16.824	0.092	-0.031	-0.145	76.000	17.095	22.880	17.810	15.015	7.150	7.897	7.865	56.235	0.260	0.129	-0.129	76.000	19.955	27.495	28.795	21.320	3.822	10.783	10.711	40.936	0.023	NaN	-0.053	76.000	23.465	28.665	36.205	27.690	6.515	12.777	12.661	82.485	0.369	0.125	-0.264	76.000	13.325	29.315	9.100	28.145	3.837	4.384	4.369	16.765	0.007	NaN	NaN	76.000	23.855	31.525	31.590	32.955	6.923	7.866	7.861	54.426	0.003	NaN	NaN	NaN	NaN	NaN	NaN	NaN	NaN	NaN	NaN	NaN	NaN	NaN	NaN
77	76.000	77.000	14.950	23.465	16.640	20.280	6.804	3.606	2.463	16.761	0.013	0.057	0.088	77.000	17.160	22.750	17.810	14.950	7.150	7.827	7.800	55.770	-0.065	0.065	0.135	77.000	19.890	27.495	28.795	21.320	3.638	10.836	10.764	39.162	0.052	NaN	-0.053	77.000	23.400	28.665	36.270	27.690	6.361	12.907	12.814	81.513	0.153	0.065	-0.065	77.000	13.520	29.315	9.165	28.145	3.687	4.509	4.485	16.537	0.116	-0.063	-0.188	77.000	23.855	31.460	31.525	32.955	6.874	7.814	7.809	53.683	-0.052	-0.064	-0.012	NaN	NaN	NaN	NaN	NaN	NaN	NaN	NaN	NaN	NaN	NaN	NaN
78	77.000	78.000	14.885	23.725	16.575	20.215	6.805	3.896	2.852	19.410	0.389	0.030	-0.262	78.000	17.160	22.750	17.875	15.080	7.480	7.703	7.690	57.519	-0.110	-0.123	NaN	78.000	19.890	27.495	28.860	21.320	4.049	10.890	10.788	43.678	0.024	0.054	NaN	78.000	23.140	28.665	36.075	27.755	6.432	12.967	12.770	82.134	-0.045	-0.199	-0.259	78.000	13.390	29.315	9.100	28.145	3.626	4.447	4.446	16.123	-0.039	0.063	0.125	78.000	23.855	31.460	31.590	32.955	7.064	7.878	7.877	55.643	0.068	0.064	NaN	NaN	NaN	NaN	NaN	NaN	NaN	NaN	NaN	NaN	NaN	NaN	NaN
79	78.000	79.000	14.950	23.790	16.575	19.955	6.476	4.165	3.168	20.512	0.315	0.239	-0.034	79.000	17.290	22.295	17.810	15.080	7.680	7.234	7.232	55.542	-0.458	-0.005	0.463	79.000	19.760	27.560	28.860	21.320	3.737	11.034	10.981	41.033	0.193	NaN	-0.144	79.000	22.880	28.795	36.010	27.755	6.093	13.171	13.085	79.734	0.316	-0.065	-0.269	79.000	13.520	29.315	9.100	28.145	3.442	4.572	4.561	15.700	0.115	NaN	-0.126	79.000	23.920	31.525	31.590	32.955	7.191	7.802	7.798	56.074	-0.080	NaN	0.076	NaN	NaN	NaN	NaN	NaN	NaN	NaN	NaN	NaN	NaN	NaN	NaN
80	79.000	80.000	15.015	23.725	16.575	19.825	8.775	4.200	3.900	34.223	0.732	0.121	0.084	80.000	17.290	22.490	17.810	15.080	10.265	7.428	7.341	75.357	0.109	NaN	-0.195	80.000	19.760	27.625	28.860	21.255	6.803	11.108	10.912	74.233	-0.069	0.037	-0.037	80.000	22.880	28.730	35.880	27.755	8.722	13.037	12.144	105.921	-0.941	-0.130	0.005	80.000	13.455	29.380	9.100	28.145	3.488	4.527	3.052	10.647	-1.509	NaN	0.045	80.000	23.920	31.525	31.590	32.890	8.958	7.791	7.476	66.970	-0.322	-0.011	NaN	NaN	NaN	NaN	NaN	NaN	NaN	NaN	NaN	NaN	NaN	NaN	NaN
81	80.000	81.000	15.080	23.855	16.575	19.760	6.420	4.359	3.530	22.663	-0.370	0.061	-0.100	81.000	17.355	22.295	17.810	15.210	7.752	7.100	7.100	55.039	-0.241	-0.130	0.199	81.000	19.695	27.625	28.795	21.320	3.737	11.071	11.023	41.190	0.111	-0.090	-0.053	81.000	22.620	28.730	35.555	27.755	5.929	12.972	12.834	76.096	0.690	-0.324	-0.259	81.000	13.455	29.250	9.100	28.145	3.469	4.493	4.492	15.582	1.440	NaN	0.032	81.000	23.855	31.460	31.590	32.955	7.164	7.878	7.878	56.438	0.402	0.012	-0.076	NaN	NaN	NaN	NaN	NaN	NaN	NaN	NaN	NaN	NaN	NaN	NaN
82	81.000	82.000	15.145	23.790	16.575	19.825	6.685	4.215	3.522	23.542	-0.009	-0.061	0.083	82.000	17.355	22.360	17.810	15.340	7.957	7.035	7.034	55.964	-0.066	-0.130	-0.065	82.000	19.500	27.820	28.600	21.450	3.730	11.108	11.037	41.168	0.014	-0.234	-0.272	82.000	23.725	28.665	35.490	27.755	7.206	11.800	11.667	84.069	-1.167	-0.065	1.107	82.000	13.455	29.250	9.100	28.145	3.412	4.493	4.485	15.303	-0.007	NaN	NaN	82.000	23.920	31.525	31.525	32.890	7.320	7.727	7.726	56.556	-0.151	-0.075	0.075	NaN	NaN	NaN	NaN	NaN	NaN	NaN	NaN	NaN	NaN	NaN	NaN
83	82.000	83.000	15.210	23.725	16.575	19.890	6.670	4.071	3.431	22.887	-0.090	-0.061	0.083	83.000	17.290	22.295	17.810	15.535	7.952	6.780	6.780	53.911	-0.254	-0.194	0.060	83.000	19.370	28.015	28.405	21.580	3.462	11.092	11.062	38.300	0.025	-0.234	-0.219	83.000	23.725	28.665	35.490	27.755	7.191	11.800	11.682	84.010	0.015	NaN	NaN	83.000	13.325	29.250	9.100	28.210	3.518	4.351	4.348	15.295	-0.137	-0.016	0.126	83.000	23.920	31.525	31.590	32.955	7.331	7.802	7.802	57.198	0.076	0.076	NaN	NaN	NaN	NaN	NaN	NaN	NaN	NaN	NaN	NaN	NaN	NaN	NaN
84	83.000	84.000	15.145	23.790	16.640	19.825	6.606	4.237	3.524	23.280	0.092	0.084	-0.084	84.000	17.290	22.165	17.810	15.665	8.086	6.521	6.521	52.728	-0.259	-0.130	0.130	84.000	19.175	28.080	28.340	21.580	3.321	11.236	11.195	37.176	0.133	-0.053	-0.197	84.000	23.725	28.665	35.425	27.820	7.255	11.730	11.608	84.213	-0.074	-0.070	NaN	84.000	13.390	29.315	9.100	28.145	3.375	4.447	4.447	15.007	0.099	0.017	-0.080	84.000	23.985	31.525	31.460	32.955	7.459	7.611	7.610	56.763	-0.192	-0.128	0.064	NaN	NaN	NaN	NaN	NaN	NaN	NaN	NaN	NaN	NaN	NaN	NaN
85	84.000	85.000	15.340	23.400	16.640	19.630	6.896	3.988	3.438	23.711	-0.086	0.184	0.432	85.000	17.290	22.100	17.810	15.795	8.081	6.326	6.326	51.123	-0.195	-0.130	0.065	85.000	19.240	28.015	28.340	21.580	3.321	11.145	11.103	36.872	-0.092	NaN	0.091	85.000	23.725	28.665	35.295	27.885	7.177	11.596	11.479	82.388	-0.129	-0.134	NaN	85.000	13.390	29.380	9.100	28.145	3.406	4.464	4.459	15.185	0.012	NaN	-0.018	85.000	23.985	31.525	31.460	32.955	7.407	7.611	7.611	56.370	6.779E-4	NaN	NaN	NaN	NaN	NaN	NaN	NaN	NaN	NaN	NaN	NaN	NaN	NaN	NaN
86	85.000	86.000	15.210	23.725	16.705	19.500	8.846	4.482	4.277	37.835	0.839	0.144	-0.350	86.000	17.290	22.035	17.745	15.860	10.801	6.192	6.121	66.117	-0.205	-0.070	0.065	86.000	19.305	28.015	28.340	21.580	6.343	11.092	10.911	69.214	-0.192	NaN	0.053	86.000	23.660	28.730	35.230	27.885	9.576	11.601	10.940	104.767	-0.539	-0.065	-0.070	86.000	13.390	29.315	9.165	28.145	3.577	4.384	2.829	10.119	-1.630	-0.063	0.017	86.000	23.985	31.525	31.460	32.955	9.159	7.611	7.264	66.535	-0.346	NaN	NaN	NaN	NaN	NaN	NaN	NaN	NaN	NaN	NaN	NaN	NaN	NaN	NaN
87	86.000	87.000	15.275	23.465	16.705	19.435	6.637	4.276	3.557	23.609	-0.720	0.061	0.267	87.000	17.290	21.970	17.745	15.925	7.940	6.062	6.060	48.114	-0.061	-0.065	0.065	87.000	19.305	27.950	28.405	21.515	3.096	11.145	11.121	34.434	0.210	0.091	0.038	87.000	23.725	28.665	35.100	27.885	6.936	11.402	11.332	78.598	0.392	-0.130	0.069	87.000	13.390	29.250	9.165	28.145	3.570	4.367	4.356	15.548	1.527	NaN	0.016	87.000	23.985	31.525	31.460	32.955	7.269	7.611	7.606	55.284	0.341	NaN	NaN	NaN	NaN	NaN	NaN	NaN	NaN	NaN	NaN	NaN	NaN	NaN	NaN
88	87.000	88.000	15.210	23.465	16.770	19.240	6.352	4.504	3.542	22.498	-0.015	0.205	-0.023	88.000	17.355	21.840	17.745	15.990	7.672	5.863	5.858	44.946	-0.202	-0.065	0.134	88.000	19.240	27.950	28.405	21.580	2.600	11.161	11.154	29.000	0.033	-0.037	-0.053	88.000	23.725	28.665	34.970	27.885	6.619	11.272	11.253	74.483	-0.080	-0.130	NaN	88.000	13.520	29.250	9.165	28.145	3.649	4.493	4.423	16.140	0.067	NaN	-0.126	88.000	23.985	31.525	31.460	32.955	7.116	7.611	7.574	53.898	-0.032	NaN	NaN	NaN	NaN	NaN	NaN	NaN	NaN	NaN	NaN	NaN	NaN	NaN	NaN
89	88.000	89.000	15.210	23.465	16.835	19.045	6.228	4.709	3.689	22.976	0.147	0.205	NaN	89.000	17.355	21.775	17.745	16.055	7.607	5.733	5.728	43.577	-0.130	-0.065	0.065	89.000	19.240	27.950	28.405	21.515	2.524	11.199	11.198	28.265	0.044	0.037	NaN	89.000	23.725	28.665	34.905	27.885	6.604	11.207	11.199	73.954	-0.054	-0.065	NaN	89.000	13.585	29.250	9.165	28.145	3.577	4.556	4.457	15.945	0.035	NaN	-0.063	89.000	23.920	31.525	31.460	32.955	7.092	7.674	7.619	54.038	0.045	NaN	-0.064	NaN	NaN	NaN	NaN	NaN	NaN	NaN	NaN	NaN	NaN	NaN	NaN
90	89.000	NaN	NaN	NaN	NaN	NaN	NaN	NaN	NaN	NaN	NaN	NaN	NaN	NaN	NaN	NaN	NaN	NaN	NaN	NaN	NaN	NaN	NaN	NaN	NaN	90.000	19.240	27.950	28.340	21.515	2.080	11.145	9.100	18.928	-2.098	-0.053	NaN	90.000	23.855	28.535	34.905	27.885	6.721	11.069	10.951	73.600	-0.247	NaN	0.137	90.000	13.455	29.250	9.165	28.145	3.926	4.430	3.682	14.458	-0.775	NaN	0.126	90.000	23.920	31.525	31.460	32.955	7.647	7.674	7.334	56.083	-0.286	NaN	NaN	NaN	NaN	NaN	NaN	NaN	NaN	NaN	NaN	NaN	NaN	NaN	NaN
91	90.000	NaN	NaN	NaN	NaN	NaN	NaN	NaN	NaN	NaN	NaN	NaN	NaN	NaN	NaN	NaN	NaN	NaN	NaN	NaN	NaN	NaN	NaN	NaN	NaN	91.000	19.110	28.080	28.340	21.515	2.081	11.327	9.431	19.625	0.331	NaN	-0.181	91.000	23.790	28.535	34.905	27.950	6.771	11.130	11.063	74.909	0.111	-0.003	-0.065	91.000	13.455	29.250	9.165	28.145	3.742	4.430	3.772	14.116	0.090	NaN	NaN	91.000	23.920	31.525	31.460	32.955	7.674	7.674	7.399	56.784	0.065	NaN	NaN	NaN	NaN	NaN	NaN	NaN	NaN	NaN	NaN	NaN	NaN	NaN	NaN
92	91.000	NaN	NaN	NaN	NaN	NaN	NaN	NaN	NaN	NaN	NaN	NaN	NaN	NaN	NaN	NaN	NaN	NaN	NaN	NaN	NaN	NaN	NaN	NaN	NaN	92.000	19.110	28.080	28.405	21.515	5.682	11.380	11.379	64.659	1.949	0.053	NaN	92.000	23.920	28.535	34.905	27.950	9.849	11.001	10.682	105.207	-0.381	NaN	0.130	92.000	13.325	29.250	9.165	28.145	2.443	4.304	2.962	7.237	-0.810	NaN	0.126	92.000	23.920	31.525	31.460	32.955	9.426	7.674	7.559	71.250	0.160	NaN	NaN	NaN	NaN	NaN	NaN	NaN	NaN	NaN	NaN	NaN	NaN	NaN	NaN
93	92.000	NaN	NaN	NaN	NaN	NaN	NaN	NaN	NaN	NaN	NaN	NaN	NaN	NaN	NaN	NaN	NaN	NaN	NaN	NaN	NaN	NaN	NaN	NaN	NaN	93.000	18.980	28.145	28.210	21.645	2.524	11.289	10.371	26.178	-1.008	-0.234	-0.144	93.000	23.855	28.535	34.905	27.950	7.346	11.065	11.059	81.238	0.377	NaN	-0.065	93.000	13.260	29.250	9.165	28.145	3.302	4.241	3.834	12.662	0.872	NaN	0.063	93.000	23.855	31.460	31.460	32.955	7.859	7.751	7.639	60.037	0.080	NaN	-0.076	NaN	NaN	NaN	NaN	NaN	NaN	NaN	NaN	NaN	NaN	NaN	NaN
94	93.000	NaN	NaN	NaN	NaN	NaN	NaN	NaN	NaN	NaN	NaN	NaN	NaN	NaN	NaN	NaN	NaN	NaN	NaN	NaN	NaN	NaN	NaN	NaN	NaN	94.000	19.045	28.145	28.210	21.580	5.577	11.274	11.272	62.868	0.901	0.038	0.053	94.000	23.920	28.600	34.970	27.885	9.787	11.073	10.777	105.473	-0.282	0.069	0.061	94.000	13.325	29.250	9.100	28.145	2.532	4.367	3.026	7.660	-0.809	0.063	-0.063	94.000	23.790	31.460	31.395	32.890	9.230	7.738	7.605	70.194	-0.034	-0.076	-0.064	NaN	NaN	NaN	NaN	NaN	NaN	NaN	NaN	NaN	NaN	NaN	NaN
95	94.000	NaN	NaN	NaN	NaN	NaN	NaN	NaN	NaN	NaN	NaN	NaN	NaN	NaN	NaN	NaN	NaN	NaN	NaN	NaN	NaN	NaN	NaN	NaN	NaN	95.000	18.980	28.210	28.210	21.645	5.539	11.327	11.326	62.733	0.054	-0.038	-0.091	95.000	23.790	28.665	35.035	27.885	9.706	11.272	10.993	106.702	0.217	0.065	-0.134	95.000	13.260	29.185	9.100	28.145	2.589	4.288	2.899	7.504	-0.127	NaN	0.079	95.000	23.790	31.460	31.200	32.825	9.295	7.535	7.410	68.876	-0.195	-0.204	NaN	NaN	NaN	NaN	NaN	NaN	NaN	NaN	NaN	NaN	NaN	NaN	NaN
96	95.000	NaN	NaN	NaN	NaN	NaN	NaN	NaN	NaN	NaN	NaN	NaN	NaN	NaN	NaN	NaN	NaN	NaN	NaN	NaN	NaN	NaN	NaN	NaN	NaN	96.000	19.045	28.080	28.210	21.645	5.668	11.199	11.194	63.451	-0.132	NaN	0.128	96.000	23.855	28.600	35.165	27.885	9.787	11.333	11.025	107.907	0.032	0.130	0.069	96.000	13.260	29.120	9.165	28.145	2.646	4.209	2.774	7.339	-0.125	-0.063	0.015	96.000	23.790	31.525	31.070	32.825	9.295	7.395	7.289	67.752	-0.121	-0.128	0.011	NaN	NaN	NaN	NaN	NaN	NaN	NaN	NaN	NaN	NaN	NaN	NaN
97	96.000	NaN	NaN	NaN	NaN	NaN	NaN	NaN	NaN	NaN	NaN	NaN	NaN	NaN	NaN	NaN	NaN	NaN	NaN	NaN	NaN	NaN	NaN	NaN	NaN	97.000	18.980	28.145	28.275	21.580	1.821	11.380	9.055	16.490	-2.140	0.091	-0.091	97.000	23.855	28.600	35.295	27.820	6.715	11.467	11.345	76.185	0.320	0.134	NaN	97.000	13.195	29.120	9.165	28.145	4.099	4.146	3.651	14.965	0.877	NaN	0.063	97.000	23.790	31.460	30.875	32.825	7.442	7.215	6.932	51.587	-0.357	-0.191	-0.012	NaN	NaN	NaN	NaN	NaN	NaN	NaN	NaN	NaN	NaN	NaN	NaN
98	97.000	NaN	NaN	NaN	NaN	NaN	NaN	NaN	NaN	NaN	NaN	NaN	NaN	NaN	NaN	NaN	NaN	NaN	NaN	NaN	NaN	NaN	NaN	NaN	NaN	98.000	18.980	28.080	28.405	21.515	1.821	11.486	9.653	17.580	0.599	0.144	0.037	98.000	23.855	28.600	35.425	27.820	6.710	11.596	11.490	77.106	0.145	0.130	NaN	98.000	13.390	29.185	9.165	28.145	3.911	4.351	3.796	14.847	0.146	NaN	-0.205	98.000	23.790	31.460	30.745	32.760	7.413	7.075	6.802	50.421	-0.130	-0.140	NaN	NaN	NaN	NaN	NaN	NaN	NaN	NaN	NaN	NaN	NaN	NaN	NaN
99	98.000	NaN	NaN	NaN	NaN	NaN	NaN	NaN	NaN	NaN	NaN	NaN	NaN	NaN	NaN	NaN	NaN	NaN	NaN	NaN	NaN	NaN	NaN	NaN	NaN	99.000	19.045	28.015	28.405	21.515	1.886	11.396	9.578	18.066	-0.075	NaN	0.090	99.000	23.855	28.600	35.685	27.755	6.715	11.860	11.729	78.762	0.239	0.264	NaN	99.000	13.325	29.185	9.165	28.145	3.991	4.288	3.709	14.804	-0.087	NaN	0.063	99.000	23.790	31.525	30.550	32.760	7.472	6.872	6.568	49.073	-0.234	-0.192	0.012	NaN	NaN	NaN	NaN	NaN	NaN	NaN	NaN	NaN	NaN	NaN	NaN
100	99.000	NaN	NaN	NaN	NaN	NaN	NaN	NaN	NaN	NaN	NaN	NaN	NaN	NaN	NaN	NaN	NaN	NaN	NaN	NaN	NaN	NaN	NaN	NaN	NaN	100.000	19.110	28.015	28.405	21.450	5.786	11.380	11.365	65.762	1.786	0.037	0.053	100.000	23.855	28.600	35.815	27.755	9.764	11.990	11.644	113.695	-0.085	0.130	NaN	100.000	13.455	29.250	9.100	28.145	2.588	4.493	2.859	7.398	-0.851	0.063	-0.142	100.000	23.790	31.525	30.420	32.695	9.230	6.732	6.622	61.119	0.054	-0.139	NaN	NaN	NaN	NaN	NaN	NaN	NaN	NaN	NaN	NaN	NaN	NaN	NaN
101	100.000	NaN	NaN	NaN	NaN	NaN	NaN	NaN	NaN	NaN	NaN	NaN	NaN	NaN	NaN	NaN	NaN	NaN	NaN	NaN	NaN	NaN	NaN	NaN	NaN	101.000	19.110	28.015	28.470	21.450	5.786	11.433	11.416	66.058	0.051	0.053	NaN	101.000	23.790	28.665	35.880	27.885	9.682	12.115	11.761	113.872	0.117	0.056	-0.069	101.000	13.260	29.250	9.165	28.210	2.677	4.225	2.898	7.757	0.039	-0.079	0.189	101.000	23.725	31.525	30.355	32.695	9.165	6.732	6.622	60.688	-6.077E-5	-0.064	-0.064	NaN	NaN	NaN	NaN	NaN	NaN	NaN	NaN	NaN	NaN	NaN	NaN
102	101.000	NaN	NaN	NaN	NaN	NaN	NaN	NaN	NaN	NaN	NaN	NaN	NaN	NaN	NaN	NaN	NaN	NaN	NaN	NaN	NaN	NaN	NaN	NaN	NaN	102.000	18.980	28.080	28.535	21.255	5.809	11.742	11.699	67.963	0.283	0.166	-0.144	102.000	23.725	28.665	36.140	27.885	9.703	12.439	11.983	116.268	0.222	0.259	-0.065	102.000	13.195	29.250	9.165	28.210	2.937	4.162	2.794	8.205	-0.104	NaN	0.063	102.000	23.725	31.525	30.355	32.695	9.171	6.732	6.584	60.384	-0.037	NaN	NaN	NaN	NaN	NaN	NaN	NaN	NaN	NaN	NaN	NaN	NaN	NaN	NaN
103	102.000	NaN	NaN	NaN	NaN	NaN	NaN	NaN	NaN	NaN	NaN	NaN	NaN	NaN	NaN	NaN	NaN	NaN	NaN	NaN	NaN	NaN	NaN	NaN	NaN	103.000	19.045	28.080	28.535	21.255	6.042	11.689	11.654	70.414	-0.045	NaN	0.053	103.000	23.725	28.665	36.400	27.885	9.868	12.699	12.200	120.400	0.217	0.260	NaN	103.000	13.065	29.250	9.165	28.275	3.052	4.020	2.616	7.985	-0.178	-0.016	0.126	103.000	23.725	31.525	30.290	32.695	9.306	6.668	6.500	60.489	-0.084	-0.064	NaN	NaN	NaN	NaN	NaN	NaN	NaN	NaN	NaN	NaN	NaN	NaN	NaN
104	103.000	NaN	NaN	NaN	NaN	NaN	NaN	NaN	NaN	NaN	NaN	NaN	NaN	NaN	NaN	NaN	NaN	NaN	NaN	NaN	NaN	NaN	NaN	NaN	NaN	104.000	18.980	28.145	28.600	21.255	1.861	11.833	10.850	20.196	-0.804	0.053	-0.091	104.000	23.855	28.600	36.595	27.885	6.695	12.760	12.732	85.248	0.532	0.195	0.133	104.000	13.130	29.250	9.230	28.275	4.093	4.020	3.670	15.020	1.054	-0.063	-0.063	104.000	23.855	31.525	30.290	32.695	7.332	6.540	6.353	46.581	-0.147	NaN	0.128	NaN	NaN	NaN	NaN	NaN	NaN	NaN	NaN	NaN	NaN	NaN	NaN
105	104.000	NaN	NaN	NaN	NaN	NaN	NaN	NaN	NaN	NaN	NaN	NaN	NaN	NaN	NaN	NaN	NaN	NaN	NaN	NaN	NaN	NaN	NaN	NaN	NaN	105.000	18.850	28.340	28.535	21.255	1.710	12.000	10.650	18.210	-0.200	-0.052	-0.220	105.000	23.855	28.600	36.660	27.885	6.695	12.825	12.805	85.729	0.073	0.065	NaN	105.000	13.130	29.250	9.230	28.275	4.082	4.020	3.695	15.083	0.025	NaN	NaN	105.000	23.790	31.460	30.290	32.695	7.221	6.616	6.458	46.627	0.105	NaN	-0.076	NaN	NaN	NaN	NaN	NaN	NaN	NaN	NaN	NaN	NaN	NaN	NaN
106	105.000	NaN	NaN	NaN	NaN	NaN	NaN	NaN	NaN	NaN	NaN	NaN	NaN	NaN	NaN	NaN	NaN	NaN	NaN	NaN	NaN	NaN	NaN	NaN	NaN	106.000	18.915	28.275	28.535	21.255	5.809	11.909	11.875	68.986	1.225	NaN	0.091	106.000	23.790	28.665	36.790	27.885	9.890	13.023	12.484	123.471	-0.321	0.130	-0.069	106.000	13.390	29.250	9.230	28.275	3.006	4.273	2.436	7.322	-1.259	NaN	-0.253	106.000	23.725	31.395	30.225	32.695	9.253	6.629	6.393	59.150	-0.065	-0.064	-0.076	NaN	NaN	NaN	NaN	NaN	NaN	NaN	NaN	NaN	NaN	NaN	NaN
107	106.000	NaN	NaN	NaN	NaN	NaN	NaN	NaN	NaN	NaN	NaN	NaN	NaN	NaN	NaN	NaN	NaN	NaN	NaN	NaN	NaN	NaN	NaN	NaN	NaN	107.000	18.980	28.275	28.535	21.190	1.876	11.895	10.988	20.614	-0.887	0.039	0.052	107.000	23.790	28.600	36.790	27.820	6.631	13.023	13.013	86.291	0.529	0.004	0.004	107.000	13.390	29.250	9.230	28.275	3.806	4.273	3.988	15.176	1.552	NaN	NaN	107.000	23.855	31.525	30.290	32.695	7.255	6.540	6.389	46.352	-0.004	0.064	0.151	NaN	NaN	NaN	NaN	NaN	NaN	NaN	NaN	NaN	NaN	NaN	NaN
108	107.000	NaN	NaN	NaN	NaN	NaN	NaN	NaN	NaN	NaN	NaN	NaN	NaN	NaN	NaN	NaN	NaN	NaN	NaN	NaN	NaN	NaN	NaN	NaN	NaN	108.000	18.980	28.275	28.600	21.255	1.955	11.909	11.140	21.784	0.152	0.014	NaN	108.000	23.790	28.665	36.725	27.820	6.696	12.963	12.949	86.710	-0.064	-0.065	-0.004	108.000	13.260	29.250	9.230	28.275	3.862	4.146	3.887	15.011	-0.101	NaN	0.126	108.000	23.790	31.460	30.290	32.695	7.206	6.616	6.496	46.809	0.107	NaN	-0.076	NaN	NaN	NaN	NaN	NaN	NaN	NaN	NaN	NaN	NaN	NaN	NaN
109	108.000	NaN	NaN	NaN	NaN	NaN	NaN	NaN	NaN	NaN	NaN	NaN	NaN	NaN	NaN	NaN	NaN	NaN	NaN	NaN	NaN	NaN	NaN	NaN	NaN	109.000	18.980	28.275	28.535	21.320	5.944	11.818	11.774	69.979	0.634	-0.091	NaN	109.000	23.790	28.600	36.725	27.820	9.959	12.958	12.353	123.019	-0.596	NaN	0.004	109.000	13.520	29.315	9.230	28.275	3.022	4.414	2.369	7.157	-1.518	NaN	-0.268	109.000	23.790	31.525	30.290	32.695	9.318	6.604	6.403	59.657	-0.093	NaN	0.012	NaN	NaN	NaN	NaN	NaN	NaN	NaN	NaN	NaN	NaN	NaN	NaN
110	109.000	NaN	NaN	NaN	NaN	NaN	NaN	NaN	NaN	NaN	NaN	NaN	NaN	NaN	NaN	NaN	NaN	NaN	NaN	NaN	NaN	NaN	NaN	NaN	NaN	110.000	18.980	28.340	28.535	21.320	5.809	11.857	11.825	68.699	0.051	NaN	-0.038	110.000	23.725	28.600	36.725	27.820	9.814	13.023	12.419	121.883	0.066	NaN	-0.065	110.000	13.585	29.315	9.165	28.275	2.960	4.541	2.438	7.216	0.069	0.063	-0.063	110.000	23.725	31.460	30.225	32.695	9.188	6.616	6.396	58.770	-0.006	-0.064	-0.076	NaN	NaN	NaN	NaN	NaN	NaN	NaN	NaN	NaN	NaN	NaN	NaN
111	110.000	NaN	NaN	NaN	NaN	NaN	NaN	NaN	NaN	NaN	NaN	NaN	NaN	NaN	NaN	NaN	NaN	NaN	NaN	NaN	NaN	NaN	NaN	NaN	NaN	111.000	19.045	28.405	28.470	21.385	2.878	11.752	11.525	33.175	-0.300	-0.091	0.013	111.000	23.725	28.665	36.660	27.820	7.345	12.963	12.933	94.991	0.514	-0.065	-0.004	111.000	13.455	29.380	9.230	28.275	3.001	4.367	4.305	12.920	1.867	-0.063	0.109	111.000	23.725	31.460	30.290	32.695	7.504	6.680	6.669	50.041	0.272	0.064	NaN	NaN	NaN	NaN	NaN	NaN	NaN	NaN	NaN	NaN	NaN	NaN	NaN
112	111.000	NaN	NaN	NaN	NaN	NaN	NaN	NaN	NaN	NaN	NaN	NaN	NaN	NaN	NaN	NaN	NaN	NaN	NaN	NaN	NaN	NaN	NaN	NaN	NaN	112.000	20.345	27.040	28.340	21.450	3.879	9.755	9.735	37.767	-1.790	-0.144	1.848	112.000	23.855	28.535	36.465	27.820	6.845	12.630	12.628	86.435	-0.305	-0.195	0.137	112.000	13.520	29.380	9.230	28.275	3.525	4.430	4.170	14.699	-0.135	NaN	-0.063	112.000	23.790	31.460	30.225	32.695	7.175	6.552	6.477	46.471	-0.192	-0.064	0.064	NaN	NaN	NaN	NaN	NaN	NaN	NaN	NaN	NaN	NaN	NaN	NaN
113	112.000	NaN	NaN	NaN	NaN	NaN	NaN	NaN	NaN	NaN	NaN	NaN	NaN	NaN	NaN	NaN	NaN	NaN	NaN	NaN	NaN	NaN	NaN	NaN	NaN	113.000	20.215	27.105	28.340	21.450	3.701	9.899	9.872	36.538	0.137	NaN	-0.144	113.000	23.790	28.600	36.465	27.885	6.771	12.695	12.695	85.962	0.067	-0.004	-0.069	113.000	13.520	29.445	9.230	28.275	3.539	4.447	4.104	14.526	-0.066	NaN	-0.017	113.000	23.790	31.525	30.290	32.695	7.220	6.604	6.497	46.906	0.020	0.064	0.012	NaN	NaN	NaN	NaN	NaN	NaN	NaN	NaN	NaN	NaN	NaN	NaN
114	113.000	NaN	NaN	NaN	NaN	NaN	NaN	NaN	NaN	NaN	NaN	NaN	NaN	NaN	NaN	NaN	NaN	NaN	NaN	NaN	NaN	NaN	NaN	NaN	NaN	114.000	20.020	27.300	28.275	21.580	3.668	10.043	10.005	36.703	0.133	-0.127	-0.271	114.000	23.790	28.600	36.465	27.820	6.974	12.699	12.698	88.560	0.003	0.004	NaN	114.000	12.285	29.120	9.230	28.275	4.550	3.170	3.055	13.900	-1.049	NaN	1.277	114.000	23.790	31.395	30.290	32.695	7.318	6.629	6.582	48.165	0.085	NaN	-0.025	NaN	NaN	NaN	NaN	NaN	NaN	NaN	NaN	NaN	NaN	NaN	NaN
115	114.000	NaN	NaN	NaN	NaN	NaN	NaN	NaN	NaN	NaN	NaN	NaN	NaN	NaN	NaN	NaN	NaN	NaN	NaN	NaN	NaN	NaN	NaN	NaN	NaN	115.000	19.890	27.430	28.210	21.580	7.088	10.171	10.097	71.563	0.092	-0.053	-0.181	115.000	23.790	28.665	36.530	27.820	9.814	12.768	12.200	119.728	-0.498	0.065	-0.004	115.000	12.545	29.185	9.230	28.275	3.642	3.438	2.640	9.616	-0.415	NaN	-0.268	115.000	23.725	31.395	30.290	32.695	9.133	6.692	6.430	58.728	-0.152	NaN	-0.064	NaN	NaN	NaN	NaN	NaN	NaN	NaN	NaN	NaN	NaN	NaN	NaN
116	115.000	NaN	NaN	NaN	NaN	NaN	NaN	NaN	NaN	NaN	NaN	NaN	NaN	NaN	NaN	NaN	NaN	NaN	NaN	NaN	NaN	NaN	NaN	NaN	NaN	116.000	19.890	27.495	28.210	21.580	7.185	10.208	10.154	72.953	0.057	NaN	-0.038	116.000	23.725	28.665	36.595	27.820	9.898	12.898	12.306	121.811	0.107	0.065	-0.065	116.000	12.805	29.250	9.230	28.275	3.435	3.706	2.608	8.957	-0.032	NaN	-0.268	116.000	23.660	31.395	30.290	32.695	9.204	6.756	6.483	59.665	0.053	NaN	-0.064	NaN	NaN	NaN	NaN	NaN	NaN	NaN	NaN	NaN	NaN	NaN	NaN
117	116.000	NaN	NaN	NaN	NaN	NaN	NaN	NaN	NaN	NaN	NaN	NaN	NaN	NaN	NaN	NaN	NaN	NaN	NaN	NaN	NaN	NaN	NaN	NaN	NaN	117.000	19.760	27.560	28.340	21.515	6.684	10.496	10.447	69.827	0.294	0.144	-0.144	117.000	23.790	28.600	36.725	27.755	9.685	12.963	12.443	120.510	0.136	0.134	0.069	117.000	13.130	29.315	9.230	28.275	3.032	4.036	2.898	8.788	0.290	NaN	-0.331	117.000	23.790	31.395	30.290	32.695	9.115	6.629	6.415	58.474	-0.067	NaN	0.127	NaN	NaN	NaN	NaN	NaN	NaN	NaN	NaN	NaN	NaN	NaN	NaN
118	117.000	NaN	NaN	NaN	NaN	NaN	NaN	NaN	NaN	NaN	NaN	NaN	NaN	NaN	NaN	NaN	NaN	NaN	NaN	NaN	NaN	NaN	NaN	NaN	NaN	118.000	20.800	26.520	28.275	21.580	8.334	8.960	8.871	73.938	-1.576	-0.090	1.441	118.000	23.660	28.665	36.725	27.755	9.707	13.097	12.564	121.967	0.121	NaN	-0.134	118.000	13.195	29.315	9.230	28.275	3.052	4.099	2.703	8.251	-0.195	NaN	-0.063	118.000	23.790	31.395	30.225	32.695	9.253	6.565	6.328	58.550	-0.087	-0.064	NaN	NaN	NaN	NaN	NaN	NaN	NaN	NaN	NaN	NaN	NaN	NaN	NaN
119	118.000	NaN	NaN	NaN	NaN	NaN	NaN	NaN	NaN	NaN	NaN	NaN	NaN	NaN	NaN	NaN	NaN	NaN	NaN	NaN	NaN	NaN	NaN	NaN	NaN	119.000	20.410	26.845	28.210	21.580	7.779	9.411	9.321	72.501	0.449	-0.054	-0.505	119.000	23.790	28.600	36.725	27.820	9.791	12.958	12.382	121.236	-0.182	-0.004	0.134	119.000	13.195	29.315	9.230	28.275	3.082	4.099	2.761	8.509	0.058	NaN	NaN	119.000	23.855	31.395	30.225	32.695	9.253	6.501	6.263	57.950	-0.065	NaN	0.064	NaN	NaN	NaN	NaN	NaN	NaN	NaN	NaN	NaN	NaN	NaN	NaN
120	119.000	NaN	NaN	NaN	NaN	NaN	NaN	NaN	NaN	NaN	NaN	NaN	NaN	NaN	NaN	NaN	NaN	NaN	NaN	NaN	NaN	NaN	NaN	NaN	NaN	120.000	20.670	26.585	28.210	21.645	8.098	9.014	8.899	72.062	-0.422	-0.036	0.360	120.000	23.790	28.600	36.790	27.820	9.730	13.023	12.434	120.987	0.052	0.065	NaN	120.000	13.260	29.315	9.230	28.275	3.082	4.162	2.791	8.602	0.030	NaN	-0.063	120.000	23.920	31.460	30.225	32.695	9.249	6.425	6.214	57.473	-0.049	NaN	0.076	NaN	NaN	NaN	NaN	NaN	NaN	NaN	NaN	NaN	NaN	NaN	NaN
121	120.000	NaN	NaN	NaN	NaN	NaN	NaN	NaN	NaN	NaN	NaN	NaN	NaN	NaN	NaN	NaN	NaN	NaN	NaN	NaN	NaN	NaN	NaN	NaN	NaN	121.000	20.735	26.585	28.275	21.580	8.238	9.050	8.949	73.722	0.050	0.090	0.054	121.000	23.790	28.600	36.855	27.820	9.814	13.088	12.480	122.479	0.046	0.065	NaN	121.000	13.520	29.380	9.230	28.275	2.945	4.430	2.634	7.757	-0.157	NaN	-0.268	121.000	23.920	31.460	30.225	32.695	9.318	6.425	6.203	57.802	-0.011	NaN	NaN	NaN	NaN	NaN	NaN	NaN	NaN	NaN	NaN	NaN	NaN	NaN	NaN
