 	dT	T (0)	Base X (0)	Base Y (0)	Tip X (0)	Tip Y (0)	||[body,base]|| (0)	||[base,tip]||  (0)	||[base,tip]|| : [body,base] (0)	[base,tip] ? [body,base] (0)	?||[base,tip]|| : [body,base] (0)	||[tip(t-1),tip(t)]|| : [base,tip] (0)	||[base(t-1),base(t)]|| : [base,tip] (0)	T (1)	Base X (1)	Base Y (1)	Tip X (1)	Tip Y (1)	||[body,base]|| (1)	||[base,tip]||  (1)	||[base,tip]|| : [body,base] (1)	[base,tip] ? [body,base] (1)	?||[base,tip]|| : [body,base] (1)	||[tip(t-1),tip(t)]|| : [base,tip] (1)	||[base(t-1),base(t)]|| : [base,tip] (1)	T (2)	Base X (2)	Base Y (2)	Tip X (2)	Tip Y (2)	||[body,base]|| (2)	||[base,tip]||  (2)	||[base,tip]|| : [body,base] (2)	[base,tip] ? [body,base] (2)	?||[base,tip]|| : [body,base] (2)	||[tip(t-1),tip(t)]|| : [base,tip] (2)	||[base(t-1),base(t)]|| : [base,tip] (2)	T (3)	Base X (3)	Base Y (3)	Tip X (3)	Tip Y (3)	||[body,base]|| (3)	||[base,tip]||  (3)	||[base,tip]|| : [body,base] (3)	[base,tip] ? [body,base] (3)	?||[base,tip]|| : [body,base] (3)	||[tip(t-1),tip(t)]|| : [base,tip] (3)	||[base(t-1),base(t)]|| : [base,tip] (3)	T (4)	Base X (4)	Base Y (4)	Tip X (4)	Tip Y (4)	||[body,base]|| (4)	||[base,tip]||  (4)	||[base,tip]|| : [body,base] (4)	[base,tip] ? [body,base] (4)	?||[base,tip]|| : [body,base] (4)	||[tip(t-1),tip(t)]|| : [base,tip] (4)	||[base(t-1),base(t)]|| : [base,tip] (4)	T (5)	Base X (5)	Base Y (5)	Tip X (5)	Tip Y (5)	||[body,base]|| (5)	||[base,tip]||  (5)	||[base,tip]|| : [body,base] (5)	[base,tip] ? [body,base] (5)	?||[base,tip]|| : [body,base] (5)	||[tip(t-1),tip(t)]|| : [base,tip] (5)	||[base(t-1),base(t)]|| : [base,tip] (5)	T (6)	Base X (6)	Base Y (6)	Tip X (6)	Tip Y (6)	||[body,base]|| (6)	||[base,tip]||  (6)	||[base,tip]|| : [body,base] (6)	[base,tip] ? [body,base] (6)	?||[base,tip]|| : [body,base] (6)	||[tip(t-1),tip(t)]|| : [base,tip] (6)	||[base(t-1),base(t)]|| : [base,tip] (6)	T (7)	Base X (7)	Base Y (7)	Tip X (7)	Tip Y (7)	||[body,base]|| (7)	||[base,tip]||  (7)	||[base,tip]|| : [body,base] (7)	[base,tip] ? [body,base] (7)	?||[base,tip]|| : [body,base] (7)	||[tip(t-1),tip(t)]|| : [base,tip] (7)	||[base(t-1),base(t)]|| : [base,tip] (7)	T (8)	Base X (8)	Base Y (8)	Tip X (8)	Tip Y (8)	||[body,base]|| (8)	||[base,tip]||  (8)	||[base,tip]|| : [body,base] (8)	[base,tip] ? [body,base] (8)	?||[base,tip]|| : [body,base] (8)	||[tip(t-1),tip(t)]|| : [base,tip] (8)	||[base(t-1),base(t)]|| : [base,tip] (8)	T (9)	Base X (9)	Base Y (9)	Tip X (9)	Tip Y (9)	||[body,base]|| (9)	||[base,tip]||  (9)	||[base,tip]|| : [body,base] (9)	[base,tip] ? [body,base] (9)	?||[base,tip]|| : [body,base] (9)	||[tip(t-1),tip(t)]|| : [base,tip] (9)	||[base(t-1),base(t)]|| : [base,tip] (9)	T (10)	Base X (10)	Base Y (10)	Tip X (10)	Tip Y (10)	||[body,base]|| (10)	||[base,tip]||  (10)	||[base,tip]|| : [body,base] (10)	[base,tip] ? [body,base] (10)	?||[base,tip]|| : [body,base] (10)	||[tip(t-1),tip(t)]|| : [base,tip] (10)	||[base(t-1),base(t)]|| : [base,tip] (10)
1	0.000	1.000	9.035	15.535	9.230	13.260	4.706	2.283	1.812	8.526	NaN	NaN	NaN	1.000	14.300	15.925	16.770	11.375	4.498	5.177	5.115	23.009	NaN	NaN	NaN	1.000	19.630	16.185	26.845	14.885	8.715	7.331	7.167	62.462	NaN	NaN	NaN	1.000	23.010	18.980	27.300	19.175	11.452	4.294	4.277	48.976	NaN	NaN	NaN	1.000	20.345	21.320	24.245	21.905	8.962	3.944	3.938	35.287	NaN	NaN	NaN	1.000	8.060	20.930	6.175	22.230	3.790	2.290	2.236	8.475	NaN	NaN	NaN	1.000	9.945	23.790	9.490	25.090	4.587	1.377	1.377	6.316	NaN	NaN	NaN	1.000	19.955	22.880	26.260	25.675	9.041	6.897	6.893	62.315	NaN	NaN	NaN	1.000	13.455	25.350	15.145	28.340	6.146	3.435	3.364	20.677	NaN	NaN	NaN	49.000	17.160	26.975	17.225	27.170	8.568	0.206	0.194	1.660	NaN	NaN	NaN	81.000	21.580	25.220	21.645	25.480	11.795	0.268	0.187	2.201	NaN	NaN	NaN
2	1.000	2.000	8.970	15.535	9.230	13.325	4.472	2.225	1.723	7.706	-0.088	-0.065	-0.008	2.000	14.300	15.860	16.705	11.440	4.519	5.032	4.926	22.262	-0.189	-0.088	0.057	2.000	19.565	16.185	26.845	14.820	8.764	7.407	7.289	63.882	0.122	0.012	-0.064	2.000	22.620	19.045	27.430	19.175	11.248	4.812	4.806	54.055	0.529	0.130	-0.388	2.000	20.345	21.385	24.310	21.905	9.208	3.999	3.980	36.648	0.042	0.064	0.008	2.000	8.060	20.930	6.175	22.295	3.692	2.327	2.293	8.467	0.057	0.038	NaN	2.000	9.945	23.660	9.425	25.155	4.584	1.583	1.583	7.254	0.206	0.083	-0.123	2.000	19.955	22.880	26.325	25.675	9.295	6.956	6.955	64.647	0.062	0.060	NaN	2.000	13.390	25.220	15.210	28.340	6.249	3.612	3.540	22.122	0.176	0.033	-0.145	50.000	17.355	26.975	17.420	27.170	8.680	0.206	0.192	1.665	-0.002	0.062	0.062	82.000	21.320	25.090	21.645	25.545	11.337	0.559	0.512	5.801	0.325	0.053	-0.257
3	2.000	3.000	8.905	15.535	9.230	13.390	4.838	2.169	1.678	8.120	-0.045	-0.064	-0.010	3.000	14.560	15.730	16.640	11.440	5.086	4.768	4.647	23.635	-0.279	-0.028	0.230	3.000	19.500	16.120	26.780	14.885	8.877	7.384	7.161	63.565	-0.128	-0.075	-0.053	3.000	22.620	19.045	27.430	19.110	11.264	4.810	4.798	54.046	-0.007	-8.783E-4	NaN	3.000	20.800	21.320	24.310	21.905	9.564	3.558	3.558	34.032	-0.422	NaN	0.438	3.000	8.060	20.930	6.175	22.230	3.538	2.290	2.220	7.854	-0.073	-0.037	NaN	3.000	9.945	23.595	9.425	25.220	4.154	1.706	1.705	7.081	0.122	0.062	-0.062	3.000	20.085	22.945	26.520	25.675	9.297	6.990	6.983	64.921	0.028	0.180	0.145	3.000	13.520	25.675	15.145	28.275	6.353	3.066	2.996	19.034	-0.544	-0.090	0.455	51.000	17.355	26.845	17.550	27.105	8.714	0.325	0.324	2.827	0.133	0.026	-0.104	83.000	21.190	25.090	21.515	25.675	11.594	0.669	0.576	6.676	0.064	0.051	-0.063
4	3.000	4.000	8.905	15.470	9.230	13.455	4.922	2.041	1.496	7.364	-0.182	-0.064	0.064	4.000	14.495	15.795	16.705	11.440	4.732	4.884	4.805	22.739	0.158	0.029	-0.087	4.000	19.500	16.120	26.650	14.950	8.586	7.245	7.019	60.265	-0.142	-0.139	NaN	4.000	23.140	18.980	27.690	19.045	11.520	4.550	4.541	52.310	-0.257	0.259	0.519	4.000	20.800	21.385	24.375	21.905	9.344	3.613	3.608	33.711	0.049	0.064	0.009	4.000	8.060	20.995	6.175	22.230	3.850	2.254	2.209	8.505	-0.011	NaN	0.036	4.000	10.010	23.530	9.425	25.285	4.285	1.850	1.846	7.909	0.141	0.062	-0.082	4.000	20.215	22.945	26.520	25.740	9.222	6.897	6.891	63.544	-0.093	0.026	0.119	4.000	13.260	25.090	15.210	28.405	5.759	3.846	3.731	21.484	0.735	0.145	-0.636	52.000	17.225	26.715	17.550	27.105	8.672	0.508	0.508	4.402	0.183	NaN	-0.183	84.000	21.060	24.960	21.320	25.675	11.114	0.761	0.594	6.604	0.018	-0.067	-0.167
5	4.000	5.000	8.905	15.535	9.230	13.455	4.886	2.105	1.566	7.651	0.070	NaN	-0.064	5.000	14.495	15.730	16.705	11.375	4.875	4.884	4.810	23.449	0.005	0.058	0.058	5.000	19.240	16.120	26.650	14.950	8.435	7.502	7.225	60.941	0.206	NaN	-0.257	5.000	23.075	18.980	27.820	19.045	11.523	4.745	4.734	54.549	0.193	0.130	-0.065	5.000	20.995	21.450	24.440	21.905	9.599	3.475	3.469	33.297	-0.139	0.064	0.202	5.000	8.060	20.930	6.175	22.230	3.743	2.290	2.219	8.306	0.010	NaN	-0.037	5.000	10.010	23.660	9.425	25.220	4.321	1.666	1.666	7.199	-0.180	-0.061	0.122	5.000	20.215	23.075	26.585	25.740	9.306	6.905	6.904	64.250	0.013	0.060	0.050	5.000	13.325	25.220	15.210	28.405	5.859	3.701	3.603	21.112	-0.127	NaN	0.145	53.000	17.160	26.520	17.615	27.105	8.573	0.741	0.740	6.346	0.233	0.040	-0.194	85.000	20.800	24.895	21.190	25.675	10.914	0.872	0.741	8.087	0.147	-0.058	-0.174
6	5.000	6.000	8.905	15.470	9.230	13.390	4.995	2.105	1.586	7.922	0.020	0.064	0.064	6.000	14.430	15.730	16.705	11.440	4.889	4.856	4.810	23.516	2.037E-4	-0.057	-0.030	6.000	19.045	16.120	26.650	14.950	8.286	7.694	7.366	61.030	0.141	NaN	-0.193	6.000	23.010	18.980	28.015	19.045	11.462	5.005	4.991	57.211	0.257	0.195	-0.065	6.000	20.930	21.450	24.505	21.905	9.523	3.604	3.598	34.261	0.129	0.064	-0.064	6.000	8.125	20.930	6.175	22.295	3.660	2.380	2.296	8.404	0.077	0.037	-0.053	6.000	10.010	23.530	9.425	25.155	4.140	1.727	1.726	7.144	0.060	-0.061	-0.122	6.000	20.280	23.075	26.650	25.740	9.343	6.905	6.903	64.490	-0.001	0.060	0.060	6.000	13.390	25.480	15.210	28.405	6.065	3.445	3.336	20.234	-0.267	NaN	0.255	54.000	17.225	26.455	17.680	27.040	8.518	0.741	0.740	6.299	-6.656E-4	-0.011	-0.011	86.000	20.475	24.830	20.995	25.740	11.192	1.048	0.912	10.208	0.171	-0.040	-0.218
7	6.000	7.000	8.840	15.470	9.230	13.455	4.886	2.052	1.476	7.212	-0.110	-0.064	-0.012	7.000	14.430	15.730	16.705	11.375	4.823	4.913	4.842	23.356	0.032	0.058	NaN	7.000	18.785	16.185	26.520	14.950	8.026	7.833	7.536	60.485	0.170	-0.128	-0.267	7.000	22.945	18.980	28.210	19.045	11.455	5.265	5.255	60.194	0.264	0.195	-0.065	7.000	20.995	21.450	24.505	21.905	9.675	3.539	3.531	34.168	-0.066	NaN	0.064	7.000	7.995	20.995	6.175	22.295	3.790	2.237	2.176	8.247	-0.120	NaN	0.144	7.000	10.075	23.465	9.490	25.090	4.154	1.727	1.727	7.174	0.001	-0.083	-0.083	7.000	20.410	23.140	26.650	25.805	9.596	6.785	6.784	65.095	-0.119	0.026	0.145	7.000	13.195	24.960	15.210	28.405	5.654	3.991	3.890	21.991	0.553	NaN	-0.547	55.000	17.160	26.390	17.745	27.105	8.518	0.924	0.923	7.863	0.184	0.091	-0.091	87.000	20.215	24.830	20.865	25.740	11.059	1.118	1.030	11.391	0.118	-0.076	-0.151
8	7.000	8.000	8.840	15.405	9.230	13.455	4.868	1.989	1.396	6.794	-0.080	NaN	0.064	8.000	14.365	15.860	16.705	11.310	4.538	5.116	5.026	22.807	0.183	0.058	-0.145	8.000	18.590	16.250	26.520	14.950	7.709	8.036	7.759	59.809	0.223	NaN	-0.203	8.000	23.075	18.915	28.405	18.980	11.517	5.330	5.322	61.288	0.067	0.194	0.129	8.000	21.125	21.515	24.635	21.905	9.779	3.532	3.513	34.349	-0.019	0.129	0.136	8.000	8.060	20.865	6.175	22.230	3.790	2.327	2.261	8.568	0.085	-0.038	-0.129	8.000	10.140	23.465	9.490	24.960	4.276	1.630	1.626	6.954	-0.101	-0.119	-0.026	8.000	20.475	23.205	26.780	25.805	9.670	6.820	6.820	65.948	0.036	0.120	0.085	8.000	13.195	24.895	15.275	28.470	5.697	4.136	4.020	22.900	0.130	0.089	-0.056	56.000	17.160	26.325	17.810	27.105	8.469	1.015	1.015	8.594	0.092	0.042	-0.050	88.000	19.890	24.830	20.605	25.805	10.859	1.209	1.121	12.176	0.091	-0.101	-0.192
9	8.000	9.000	8.840	15.405	9.230	13.455	4.868	1.989	1.396	6.794	NaN	NaN	NaN	9.000	14.430	15.730	16.705	11.310	4.680	4.971	4.889	22.883	-0.137	NaN	0.145	9.000	18.395	16.315	26.455	14.950	7.504	8.175	7.898	59.268	0.139	-0.064	-0.203	9.000	23.010	18.980	28.535	18.915	11.449	5.525	5.523	63.236	0.202	0.131	-0.066	9.000	20.995	21.450	24.570	21.840	9.638	3.596	3.578	34.480	0.065	-0.072	-0.136	9.000	7.995	20.930	6.175	22.230	3.875	2.237	2.181	8.450	-0.080	NaN	0.091	9.000	10.075	23.400	9.490	24.960	4.237	1.666	1.666	7.060	0.040	NaN	-0.038	9.000	20.410	23.140	26.910	25.805	9.585	7.025	7.025	67.334	0.205	0.120	-0.085	9.000	13.195	24.895	15.340	28.535	5.697	4.225	4.101	23.360	0.081	0.089	NaN	57.000	16.900	26.130	17.810	27.105	8.200	1.334	1.333	10.930	0.318	NaN	-0.320	89.000	19.565	24.700	20.410	25.805	10.569	1.391	1.302	13.757	0.180	-0.118	-0.301
10	9.000	10.000	8.775	15.470	9.230	13.455	4.851	2.066	1.385	6.718	-0.011	NaN	-0.078	10.000	14.365	15.730	16.770	11.310	4.641	5.032	4.977	23.098	0.088	0.031	-0.031	10.000	18.200	16.315	26.455	14.950	7.327	8.367	8.050	58.989	0.153	NaN	-0.192	10.000	23.010	18.980	28.600	18.850	11.449	5.592	5.591	64.009	0.068	0.066	NaN	10.000	20.930	21.385	24.440	21.905	9.561	3.548	3.542	33.868	-0.035	-0.119	-0.074	10.000	7.995	20.930	6.175	22.230	3.875	2.237	2.181	8.450	NaN	NaN	NaN	10.000	10.075	23.465	9.490	24.960	4.298	1.605	1.605	6.899	-0.061	NaN	0.061	10.000	20.215	23.075	26.975	25.805	9.380	7.290	7.290	68.377	0.265	0.060	-0.205	10.000	13.195	24.830	15.340	28.535	5.634	4.281	4.166	23.474	0.066	NaN	-0.056	58.000	16.705	26.000	17.745	27.105	7.981	1.517	1.515	12.092	0.182	-0.045	-0.228	90.000	19.305	24.505	20.345	25.805	10.170	1.665	1.575	16.021	0.274	-0.041	-0.315
11	10.000	11.000	8.775	15.405	9.230	13.455	4.798	2.002	1.320	6.333	-0.065	NaN	0.063	11.000	14.300	15.730	16.770	11.310	4.498	5.063	5.012	22.545	0.035	NaN	-0.032	11.000	17.940	16.315	26.585	14.950	7.037	8.752	8.406	59.150	0.355	0.128	-0.257	11.000	23.010	18.980	28.730	18.785	11.445	5.723	5.723	65.500	0.132	0.132	NaN	11.000	20.865	21.320	24.440	21.905	9.511	3.623	3.618	34.408	0.076	NaN	-0.075	11.000	7.995	20.930	6.175	22.230	3.927	2.237	2.195	8.619	0.014	NaN	NaN	11.000	10.075	23.530	9.490	24.830	4.482	1.426	1.421	6.367	-0.184	-0.119	0.059	11.000	20.150	23.140	27.105	25.870	9.398	7.472	7.464	70.143	0.174	0.145	-0.037	11.000	13.130	24.765	15.275	28.470	5.678	4.281	4.152	23.576	-0.014	-0.089	-0.089	59.000	16.510	25.805	17.745	27.170	7.890	1.841	1.839	14.513	0.324	0.048	-0.275	91.000	19.305	24.635	20.215	25.740	10.190	1.431	1.357	13.828	-0.218	-0.133	0.100
12	11.000	12.000	8.905	15.405	9.230	13.455	4.617	1.977	1.405	6.485	0.085	NaN	0.021	12.000	14.365	15.795	16.770	11.245	4.386	5.147	5.039	22.101	0.027	0.057	-0.027	12.000	17.745	16.380	26.715	14.885	6.778	9.094	8.788	59.568	0.383	0.139	-0.203	12.000	23.010	18.980	28.860	18.720	11.442	5.856	5.854	66.975	0.130	0.133	NaN	12.000	21.060	21.320	24.375	21.905	9.729	3.366	3.362	32.714	-0.255	-0.064	0.192	12.000	7.995	20.865	6.175	22.230	3.954	2.275	2.229	8.813	0.034	NaN	-0.039	12.000	10.075	23.530	9.490	24.895	4.604	1.485	1.481	6.819	0.060	0.060	NaN	12.000	20.475	23.400	27.235	26.000	9.856	7.243	7.222	71.183	-0.242	0.168	0.397	12.000	13.000	24.375	15.210	28.405	5.393	4.596	4.472	24.116	0.320	-0.088	-0.404	60.000	16.380	25.675	17.745	27.170	7.715	2.024	2.021	15.594	0.182	NaN	-0.184	92.000	19.240	24.700	20.215	25.675	9.447	1.379	1.355	12.802	-0.002	-0.046	2.475E-15
13	12.000	13.000	8.840	15.470	9.230	13.455	4.602	2.052	1.391	6.401	-0.014	NaN	-0.076	13.000	14.235	16.055	16.770	11.245	4.103	5.437	5.304	21.763	0.265	NaN	-0.291	13.000	17.485	16.380	26.715	14.885	6.542	9.350	8.984	58.774	0.196	NaN	-0.257	13.000	22.945	18.980	28.990	18.720	11.377	6.051	6.049	68.813	0.195	0.130	-0.065	13.000	20.995	21.320	24.440	21.905	9.666	3.494	3.489	33.724	0.127	0.064	-0.064	13.000	8.190	20.670	6.175	22.230	3.696	2.548	2.474	9.143	0.245	NaN	-0.274	13.000	10.205	23.400	9.490	24.895	4.440	1.657	1.642	7.292	0.161	NaN	-0.173	13.000	20.280	23.335	27.300	26.065	9.652	7.532	7.511	72.501	0.289	0.084	-0.205	13.000	12.935	24.310	15.210	28.405	5.313	4.685	4.542	24.133	0.070	NaN	-0.088	61.000	16.185	25.545	17.810	27.300	7.451	2.392	2.384	17.766	0.363	0.140	-0.228	93.000	19.110	24.635	20.085	25.675	9.230	1.426	1.389	12.819	0.034	-0.089	-0.136
14	13.000	14.000	8.840	15.340	9.230	13.390	4.707	1.989	1.362	6.414	-0.028	0.064	0.127	14.000	14.300	16.120	16.835	11.115	4.097	5.610	5.421	22.211	0.117	0.145	-0.029	14.000	17.680	16.315	26.845	14.820	6.746	9.286	8.934	60.274	-0.050	0.139	0.203	14.000	23.010	18.980	29.055	18.655	11.442	6.054	6.050	69.218	0.001	0.068	0.065	14.000	20.930	21.255	24.505	21.905	9.588	3.634	3.631	34.814	0.142	0.064	-0.076	14.000	8.255	20.605	6.110	22.230	3.610	2.691	2.613	9.434	0.139	0.052	-0.091	14.000	10.270	23.335	9.490	24.830	4.358	1.686	1.660	7.233	0.017	-0.058	-0.088	14.000	20.150	23.335	27.365	26.065	9.535	7.714	7.683	73.262	0.172	0.061	-0.122	14.000	12.805	24.310	15.210	28.340	5.281	4.693	4.481	23.664	-0.061	-0.056	-0.067	62.000	16.120	25.350	17.875	27.170	7.400	2.528	2.517	18.628	0.133	-0.048	-0.185	94.000	18.980	24.570	20.150	25.610	9.598	1.565	1.541	14.788	0.152	0.005	-0.140
15	14.000	15.000	8.905	15.405	9.230	13.520	4.564	1.913	1.340	6.118	-0.022	-0.128	-0.053	15.000	14.365	16.250	16.770	11.180	3.999	5.611	5.307	21.222	-0.114	-0.087	-0.090	15.000	17.615	16.250	26.910	14.820	6.687	9.404	9.014	60.278	0.079	0.064	-0.054	15.000	22.945	18.980	29.250	18.525	11.376	6.321	6.310	71.779	0.260	0.204	-0.065	15.000	21.060	21.190	24.570	21.905	9.715	3.582	3.582	34.797	-0.049	0.064	0.114	15.000	8.190	20.735	6.110	22.230	3.750	2.562	2.522	9.460	-0.091	NaN	0.129	15.000	10.270	23.335	9.425	24.895	4.420	1.774	1.740	7.690	0.080	0.088	NaN	15.000	19.955	23.270	27.495	26.130	9.360	8.064	8.026	75.121	0.342	0.145	-0.205	15.000	12.805	24.245	15.210	28.405	5.281	4.805	4.607	24.332	0.126	0.056	-0.056	63.000	15.860	25.090	17.940	26.975	7.189	2.807	2.760	19.841	0.243	-0.083	-0.367	95.000	18.785	24.505	20.085	25.480	9.364	1.625	1.618	15.147	0.077	-0.130	-0.195
16	15.000	16.000	8.970	15.340	9.230	13.520	4.617	1.838	1.336	6.169	-0.004	NaN	0.074	16.000	14.495	16.120	16.835	11.115	4.138	5.525	5.234	21.657	-0.073	0.086	0.173	16.000	17.745	16.315	26.845	14.885	6.719	9.212	8.870	59.598	-0.144	-0.074	0.118	16.000	23.075	18.980	29.445	18.460	11.441	6.391	6.375	72.940	0.066	0.200	0.130	16.000	21.255	21.255	24.505	21.905	9.856	3.314	3.314	32.659	-0.268	-0.064	0.204	16.000	8.190	20.735	6.110	22.295	3.809	2.600	2.547	9.701	0.024	0.039	NaN	16.000	10.140	23.595	9.490	24.895	4.728	1.453	1.439	6.802	-0.301	-0.029	0.291	16.000	19.890	23.205	27.495	26.195	9.215	8.172	8.142	75.023	0.116	0.024	-0.084	16.000	12.805	24.310	15.210	28.405	5.330	4.749	4.523	24.108	-0.084	NaN	0.056	64.000	15.730	24.895	18.005	26.910	6.955	3.039	2.983	20.745	0.223	0.006	-0.227	96.000	18.590	24.440	20.085	25.545	9.175	1.859	1.848	16.955	0.230	0.039	-0.195
17	16.000	17.000	8.840	15.405	9.230	13.455	4.693	1.989	1.334	6.261	-0.002	0.064	-0.089	17.000	14.820	16.055	16.770	11.245	4.459	5.190	4.759	21.218	-0.475	-0.145	0.182	17.000	17.745	16.315	26.780	14.885	6.746	9.147	8.789	59.294	-0.081	-0.064	NaN	17.000	23.075	18.980	29.510	18.460	11.442	6.456	6.443	73.718	0.067	0.065	NaN	17.000	21.320	21.320	24.505	21.905	9.920	3.238	3.236	32.102	-0.077	NaN	0.076	17.000	8.320	20.670	6.110	22.295	3.637	2.743	2.683	9.756	0.136	NaN	-0.143	17.000	10.140	23.465	9.425	24.960	4.543	1.657	1.647	7.482	0.208	0.087	-0.117	17.000	19.955	23.270	27.625	26.260	9.273	8.232	8.202	76.058	0.060	0.145	0.084	17.000	12.740	24.375	15.210	28.405	5.316	4.727	4.455	23.685	-0.068	NaN	0.021	65.000	15.860	25.025	18.070	26.780	7.138	2.822	2.739	19.549	-0.244	-0.030	0.183	97.000	18.395	24.310	20.020	25.480	8.998	2.002	1.992	17.922	0.144	-0.091	-0.234
18	17.000	18.000	8.905	15.405	9.230	13.520	4.670	1.913	1.362	6.363	0.028	-0.064	0.011	18.000	14.820	16.055	16.705	11.310	4.550	5.106	4.667	21.239	-0.091	-0.084	NaN	18.000	17.550	16.445	26.845	14.820	6.601	9.436	9.109	60.126	0.320	0.075	-0.214	18.000	23.075	18.980	29.705	18.330	11.508	6.662	6.643	76.447	0.200	0.207	NaN	18.000	21.515	21.385	24.635	21.905	10.174	3.163	3.160	32.144	-0.077	0.128	0.203	18.000	8.255	20.735	6.110	22.230	3.637	2.615	2.570	9.346	-0.113	-0.037	0.090	18.000	9.880	24.180	9.425	25.025	5.221	0.960	0.947	4.943	-0.700	0.057	0.753	18.000	19.955	23.205	27.625	26.325	9.275	8.280	8.268	76.684	0.066	0.024	-0.024	18.000	12.740	24.375	15.210	28.470	5.267	4.782	4.541	23.918	0.086	0.056	NaN	66.000	15.795	24.830	18.135	26.780	6.904	3.046	2.974	20.534	0.235	0.050	-0.175	98.000	18.200	24.310	19.890	25.545	8.951	2.093	2.085	18.662	0.093	-0.067	-0.157
19	18.000	19.000	8.775	15.470	9.230	13.455	4.784	2.066	1.343	6.426	-0.019	0.063	-0.092	19.000	14.690	16.055	16.640	11.310	4.460	5.130	4.793	21.379	0.125	-0.025	-0.049	19.000	17.810	16.445	26.910	14.820	6.805	9.244	8.940	60.840	-0.168	0.064	0.256	19.000	23.075	18.980	29.835	18.265	11.445	6.798	6.778	77.567	0.135	0.136	NaN	19.000	21.515	21.320	24.570	21.905	10.083	3.111	3.110	31.362	-0.049	-0.064	-0.012	19.000	8.190	20.800	6.110	22.230	3.755	2.524	2.477	9.303	-0.093	NaN	0.090	19.000	9.880	24.180	9.360	25.025	5.181	0.992	0.971	5.032	0.024	0.034	NaN	19.000	20.085	23.205	27.625	26.390	9.307	8.185	8.181	76.135	-0.087	0.025	0.120	19.000	12.805	24.375	15.210	28.340	5.203	4.637	4.404	22.916	-0.137	-0.111	0.034	67.000	15.730	24.765	18.200	26.650	6.813	3.107	3.001	20.445	0.027	-0.027	-0.091	99.000	18.005	24.115	19.825	25.480	8.628	2.275	2.262	19.520	0.178	-0.091	-0.273
20	19.000	20.000	8.775	15.405	9.230	13.455	4.942	2.002	1.327	6.557	-0.016	NaN	0.063	20.000	14.495	16.055	16.705	11.375	4.428	5.176	5.000	22.139	0.207	-0.031	-0.083	20.000	19.110	16.055	26.845	14.820	8.204	7.833	7.557	61.993	-1.383	-0.064	1.345	20.000	23.140	18.980	29.965	18.200	11.514	6.869	6.850	78.877	0.073	0.137	0.065	20.000	21.580	21.320	24.635	21.970	10.122	3.123	3.123	31.607	0.012	0.077	0.064	20.000	8.255	20.670	6.110	22.230	3.599	2.652	2.550	9.177	0.073	NaN	-0.129	20.000	10.010	23.855	9.425	24.895	4.709	1.193	1.178	5.547	0.207	-0.145	-0.347	20.000	19.825	23.075	27.690	26.455	8.962	8.561	8.560	76.718	0.379	0.085	-0.290	20.000	12.870	24.310	15.210	28.405	5.029	4.716	4.544	22.853	0.140	0.056	-0.024	68.000	16.185	24.895	18.200	26.520	7.191	2.589	2.545	18.303	-0.456	-0.082	0.436	100.000	18.005	24.115	19.825	25.480	8.506	2.275	2.260	19.224	-0.002	NaN	NaN
21	20.000	21.000	8.775	15.405	9.230	13.455	4.851	2.002	1.332	6.460	0.005	NaN	NaN	21.000	14.430	15.990	16.705	11.375	4.428	5.145	4.993	22.105	-0.008	NaN	0.030	21.000	18.590	16.250	26.910	14.820	7.682	8.442	8.184	62.868	0.627	0.064	-0.546	21.000	23.075	18.980	30.030	18.070	11.512	7.014	6.982	80.372	0.131	0.081	-0.064	21.000	21.580	21.320	24.635	21.970	10.198	3.123	3.123	31.848	3.136E-4	NaN	NaN	21.000	8.255	20.735	6.110	22.230	3.585	2.615	2.553	9.151	0.003	NaN	0.037	21.000	10.010	23.920	9.425	24.960	4.810	1.193	1.174	5.645	-0.004	0.057	0.057	21.000	20.085	23.140	27.755	26.390	9.312	8.330	8.329	77.563	-0.231	0.034	0.265	21.000	13.000	24.440	15.210	28.405	5.268	4.539	4.416	23.263	-0.128	NaN	0.177	69.000	17.420	25.545	18.460	26.325	8.365	1.300	1.287	10.765	-1.258	0.091	1.378	101.000	18.005	24.050	19.890	25.350	8.539	2.290	2.284	19.507	0.024	-0.020	-0.037
22	21.000	22.000	8.840	15.470	9.165	13.520	4.814	1.977	1.422	6.845	0.090	-0.075	-0.053	22.000	14.300	15.860	16.770	11.310	4.498	5.177	5.115	23.009	0.123	0.088	0.052	22.000	18.525	16.250	26.845	14.820	7.650	8.442	8.160	62.420	-0.024	-0.064	-0.064	22.000	23.010	18.980	30.095	18.005	11.449	7.152	7.118	81.496	0.136	0.073	-0.064	22.000	21.645	21.320	24.570	22.035	10.250	3.011	3.007	30.817	-0.116	-0.048	0.063	22.000	8.255	20.735	6.110	22.230	3.561	2.615	2.543	9.054	-0.010	NaN	NaN	22.000	10.075	23.855	9.425	24.830	4.666	1.172	1.132	5.281	-0.042	-0.108	-0.090	22.000	20.280	23.140	27.820	26.325	9.465	8.185	8.185	77.474	-0.144	0.035	0.180	22.000	13.130	24.700	15.210	28.405	5.491	4.249	4.143	22.752	-0.273	NaN	0.290	NaN	NaN	NaN	NaN	NaN	NaN	NaN	NaN	NaN	NaN	NaN	NaN	102.000	18.200	24.050	19.890	25.285	8.717	2.093	2.085	18.172	-0.200	-0.038	0.157
23	22.000	23.000	8.840	15.470	9.230	13.455	4.868	2.052	1.450	7.056	0.028	0.076	NaN	23.000	14.300	15.795	16.640	11.440	4.602	4.944	4.894	22.523	-0.221	-0.176	0.057	23.000	18.070	16.380	26.780	14.885	7.210	8.837	8.499	61.279	0.339	-0.075	-0.470	23.000	23.010	18.980	30.160	17.875	11.452	7.235	7.193	82.371	0.075	0.084	NaN	23.000	21.710	21.385	24.570	22.035	10.314	2.933	2.931	30.226	-0.076	NaN	0.078	23.000	8.255	20.800	6.110	22.165	3.561	2.542	2.495	8.885	-0.047	-0.035	0.035	23.000	10.075	23.790	9.425	24.830	4.543	1.226	1.196	5.433	0.064	NaN	-0.055	23.000	20.215	23.205	27.820	26.325	9.405	8.220	8.219	77.305	0.034	NaN	-0.035	23.000	13.195	24.830	15.210	28.405	5.572	4.104	4.007	22.329	-0.136	NaN	0.145	NaN	NaN	NaN	NaN	NaN	NaN	NaN	NaN	NaN	NaN	NaN	NaN	103.000	18.980	24.115	19.955	24.765	9.344	1.172	1.169	10.922	-0.916	-0.234	0.685
24	23.000	24.000	8.840	15.405	9.230	13.520	4.868	1.925	1.342	6.532	-0.108	-0.064	0.064	24.000	14.235	15.860	16.640	11.440	4.459	5.032	4.981	22.211	0.087	NaN	-0.088	24.000	17.745	16.575	26.780	14.885	6.805	9.192	8.909	60.625	0.409	NaN	-0.355	24.000	23.075	18.980	30.225	17.810	11.514	7.245	7.191	82.793	-0.002	0.075	0.064	24.000	21.775	21.320	24.635	22.035	10.378	2.948	2.942	30.534	0.012	0.063	0.047	24.000	8.255	20.670	6.110	22.230	3.538	2.652	2.555	9.037	0.059	0.038	-0.076	24.000	10.010	23.920	9.425	24.830	4.749	1.082	1.052	4.994	-0.144	NaN	0.145	24.000	20.215	23.205	27.755	26.325	9.431	8.160	8.159	76.946	-0.061	-0.060	NaN	24.000	13.260	24.830	15.210	28.405	5.654	4.072	3.994	22.583	-0.013	NaN	0.031	NaN	NaN	NaN	NaN	NaN	NaN	NaN	NaN	NaN	NaN	NaN	NaN	NaN	NaN	NaN	NaN	NaN	NaN	NaN	NaN	NaN	NaN	NaN	NaN
25	24.000	25.000	8.775	15.405	9.230	13.520	4.942	1.939	1.274	6.295	-0.068	NaN	-0.015	25.000	14.235	15.860	16.640	11.440	4.420	5.032	4.989	22.055	0.008	NaN	NaN	25.000	17.550	16.705	26.780	14.885	6.515	9.408	9.143	59.564	0.235	NaN	-0.216	25.000	23.140	18.915	30.225	17.810	11.517	7.171	7.128	82.088	-0.063	NaN	0.074	25.000	21.645	21.320	24.635	22.035	10.186	3.074	3.071	31.278	0.128	NaN	-0.126	25.000	8.190	20.800	6.110	22.230	3.706	2.524	2.460	9.118	-0.094	NaN	0.127	25.000	9.945	23.985	9.425	24.895	4.854	1.048	1.034	5.019	-0.018	0.056	0.089	25.000	20.215	23.205	27.885	26.390	9.372	8.305	8.303	77.816	0.145	0.145	NaN	25.000	13.195	25.025	15.275	28.470	5.804	4.024	3.877	22.502	-0.117	0.089	0.133	NaN	NaN	NaN	NaN	NaN	NaN	NaN	NaN	NaN	NaN	NaN	NaN	NaN	NaN	NaN	NaN	NaN	NaN	NaN	NaN	NaN	NaN	NaN	NaN
26	25.000	26.000	8.710	15.470	9.230	13.455	4.875	2.081	1.300	6.338	0.026	0.063	-0.079	26.000	14.300	15.860	16.640	11.440	4.407	5.001	4.935	21.750	-0.054	NaN	0.030	26.000	17.615	16.575	26.715	14.885	6.601	9.256	8.960	59.142	-0.184	-0.064	0.088	26.000	23.140	18.980	30.290	17.810	11.512	7.245	7.186	82.717	0.058	0.064	-0.010	26.000	21.580	21.320	24.570	22.035	10.134	3.074	3.072	31.130	0.001	-0.063	-0.063	26.000	8.255	20.670	6.110	22.230	3.621	2.652	2.562	9.278	0.102	NaN	-0.129	26.000	9.945	23.985	9.425	24.830	4.915	0.992	0.972	4.778	-0.062	-0.055	NaN	26.000	20.150	23.205	27.885	26.390	9.339	8.365	8.361	78.078	0.057	NaN	-0.060	26.000	13.130	25.025	15.210	28.470	5.849	4.024	3.862	22.591	-0.015	-0.034	-0.034	NaN	NaN	NaN	NaN	NaN	NaN	NaN	NaN	NaN	NaN	NaN	NaN	NaN	NaN	NaN	NaN	NaN	NaN	NaN	NaN	NaN	NaN	NaN	NaN
27	26.000	27.000	8.775	15.600	9.230	13.455	4.732	2.193	1.434	6.785	0.134	NaN	-0.114	27.000	14.300	15.795	16.640	11.440	4.459	4.944	4.890	21.805	-0.045	NaN	0.057	27.000	17.420	16.640	26.585	14.885	6.397	9.332	9.037	57.811	0.078	-0.128	-0.204	27.000	23.205	18.915	30.290	17.745	11.579	7.181	7.126	82.506	-0.060	0.011	0.075	27.000	21.710	21.320	24.505	22.035	10.262	2.885	2.880	29.554	-0.192	-0.063	0.126	27.000	8.125	20.800	6.110	22.230	3.790	2.471	2.406	9.118	-0.156	NaN	0.181	27.000	9.945	23.920	9.425	24.895	4.854	1.105	1.095	5.315	0.123	0.057	-0.057	27.000	20.020	23.205	27.755	26.390	9.220	8.365	8.359	77.072	-0.002	-0.120	-0.120	27.000	13.065	25.025	15.210	28.405	5.833	4.003	3.803	22.181	-0.059	-0.055	-0.035	NaN	NaN	NaN	NaN	NaN	NaN	NaN	NaN	NaN	NaN	NaN	NaN	NaN	NaN	NaN	NaN	NaN	NaN	NaN	NaN	NaN	NaN	NaN	NaN
28	27.000	28.000	8.645	15.600	9.230	13.455	4.772	2.223	1.336	6.376	-0.098	NaN	-0.034	28.000	14.170	16.055	16.640	11.440	4.213	5.234	5.156	21.721	0.266	NaN	-0.291	28.000	17.420	16.510	26.520	14.885	6.512	9.244	8.889	57.883	-0.148	-0.064	0.023	28.000	23.075	18.915	30.355	17.745	11.514	7.373	7.321	84.289	0.195	0.064	-0.128	28.000	21.775	21.320	24.570	21.905	10.390	2.856	2.855	29.664	-0.025	0.037	0.064	28.000	8.190	20.800	6.110	22.230	3.670	2.524	2.473	9.075	0.067	NaN	-0.054	28.000	10.010	23.855	9.425	24.960	4.749	1.250	1.236	5.869	0.141	0.057	-0.088	28.000	19.955	23.140	27.755	26.325	9.194	8.425	8.420	77.410	0.061	-0.025	-0.085	28.000	13.000	24.895	15.275	28.470	5.707	4.237	4.031	23.005	0.228	0.090	-0.145	NaN	NaN	NaN	NaN	NaN	NaN	NaN	NaN	NaN	NaN	NaN	NaN	NaN	NaN	NaN	NaN	NaN	NaN	NaN	NaN	NaN	NaN	NaN	NaN
29	28.000	29.000	8.645	15.600	9.230	13.455	4.711	2.223	1.286	6.059	-0.050	NaN	NaN	29.000	14.170	15.990	16.705	11.375	4.122	5.265	5.198	21.425	0.042	0.088	0.057	29.000	17.420	16.445	26.520	14.885	6.425	9.233	8.872	57.004	-0.017	NaN	0.011	29.000	23.205	18.915	30.355	17.745	11.575	7.245	7.180	83.106	-0.141	NaN	0.128	29.000	21.905	21.320	24.440	21.905	10.479	2.602	2.601	27.251	-0.254	-0.127	0.127	29.000	8.190	20.800	6.175	22.165	3.782	2.434	2.399	9.071	-0.074	-0.090	NaN	29.000	10.010	23.855	9.425	24.895	4.893	1.193	1.175	5.750	-0.061	-0.057	NaN	29.000	19.890	23.140	27.495	26.325	9.130	8.245	8.237	75.201	-0.183	-0.240	-0.060	29.000	12.935	24.765	15.210	28.470	5.676	4.348	4.128	23.428	0.097	-0.034	-0.145	NaN	NaN	NaN	NaN	NaN	NaN	NaN	NaN	NaN	NaN	NaN	NaN	NaN	NaN	NaN	NaN	NaN	NaN	NaN	NaN	NaN	NaN	NaN	NaN
30	29.000	30.000	8.645	15.665	9.230	13.455	4.661	2.286	1.320	6.152	0.034	NaN	-0.063	30.000	14.170	16.120	16.640	11.375	4.020	5.349	5.240	21.066	0.042	-0.030	-0.115	30.000	17.420	16.315	26.520	14.885	6.482	9.212	8.766	56.826	-0.106	NaN	0.020	30.000	23.140	18.915	30.355	17.745	11.510	7.309	7.245	83.389	0.065	NaN	-0.064	30.000	22.035	21.385	24.440	21.905	10.619	2.461	2.460	26.127	-0.140	NaN	0.141	30.000	8.190	20.865	6.175	22.230	3.809	2.434	2.405	9.160	0.006	0.036	0.036	30.000	10.140	23.595	9.425	24.895	4.604	1.484	1.462	6.730	0.286	NaN	-0.290	30.000	19.890	23.205	27.235	26.260	9.158	7.955	7.944	72.746	-0.293	-0.265	0.025	30.000	13.000	24.830	15.210	28.405	5.754	4.203	3.997	23.001	-0.130	-0.055	0.089	NaN	NaN	NaN	NaN	NaN	NaN	NaN	NaN	NaN	NaN	NaN	NaN	NaN	NaN	NaN	NaN	NaN	NaN	NaN	NaN	NaN	NaN	NaN	NaN
31	30.000	31.000	8.710	15.535	9.230	13.455	4.927	2.144	1.365	6.726	0.045	NaN	0.142	31.000	14.105	16.120	16.705	11.310	4.186	5.468	5.418	22.680	0.177	0.088	-0.031	31.000	17.290	16.380	26.520	14.950	6.459	9.340	8.772	56.657	0.006	-0.010	-0.138	31.000	23.140	18.915	30.290	17.745	11.520	7.245	7.200	82.945	-0.045	-0.064	NaN	31.000	22.165	21.385	24.440	21.905	10.697	2.334	2.331	24.936	-0.129	NaN	0.127	31.000	8.125	20.930	6.110	22.230	3.790	2.398	2.357	8.932	-0.048	0.055	0.090	31.000	10.075	23.595	9.425	24.830	4.382	1.396	1.385	6.071	-0.076	-0.058	0.030	31.000	19.760	23.205	27.105	26.195	8.930	7.930	7.924	70.756	-0.020	-0.145	-0.120	31.000	13.065	25.285	15.210	28.405	5.959	3.786	3.544	21.117	-0.454	NaN	0.412	NaN	NaN	NaN	NaN	NaN	NaN	NaN	NaN	NaN	NaN	NaN	NaN	NaN	NaN	NaN	NaN	NaN	NaN	NaN	NaN	NaN	NaN	NaN	NaN
32	31.000	32.000	8.645	15.600	9.230	13.455	4.966	2.223	1.360	6.756	-0.005	NaN	-0.080	32.000	13.975	16.250	16.705	11.375	4.058	5.587	5.557	22.549	0.139	-0.057	-0.177	32.000	17.290	16.445	26.520	14.950	6.459	9.350	8.804	56.860	0.031	NaN	-0.010	32.000	23.140	18.915	30.355	17.810	11.523	7.299	7.266	83.727	0.066	0.054	NaN	32.000	22.295	21.385	24.245	21.905	10.814	2.018	2.010	21.733	-0.321	-0.188	0.126	32.000	8.320	20.800	6.175	22.165	3.538	2.542	2.487	8.796	0.130	-0.090	-0.234	32.000	10.075	23.530	9.490	24.830	4.261	1.426	1.424	6.067	0.038	-0.027	-0.059	32.000	19.630	23.140	26.910	26.065	8.758	7.846	7.840	68.660	-0.084	-0.229	-0.145	32.000	13.130	25.350	15.210	28.405	5.975	3.696	3.478	20.783	-0.065	NaN	0.090	NaN	NaN	NaN	NaN	NaN	NaN	NaN	NaN	NaN	NaN	NaN	NaN	NaN	NaN	NaN	NaN	NaN	NaN	NaN	NaN	NaN	NaN	NaN	NaN
33	32.000	33.000	8.710	15.600	9.230	13.455	4.836	2.207	1.422	6.878	0.062	NaN	0.015	33.000	13.845	16.315	16.705	11.375	3.914	5.708	5.682	22.240	0.125	NaN	-0.121	33.000	17.030	16.445	26.520	14.885	6.257	9.617	9.043	56.581	0.240	0.011	-0.257	33.000	23.075	18.980	30.355	17.745	11.517	7.384	7.328	84.399	0.062	0.011	-0.075	33.000	22.425	21.450	24.310	21.905	11.029	1.939	1.936	21.349	-0.074	0.063	0.142	33.000	8.255	20.865	6.110	22.230	3.585	2.542	2.503	8.974	0.017	0.090	0.090	33.000	10.205	23.465	9.425	24.895	4.193	1.629	1.606	6.735	0.182	0.088	-0.119	33.000	19.630	23.140	26.585	25.935	8.844	7.496	7.489	66.231	-0.351	-0.350	NaN	33.000	13.065	25.350	15.275	28.470	6.038	3.823	3.570	21.556	0.092	0.091	-0.038	NaN	NaN	NaN	NaN	NaN	NaN	NaN	NaN	NaN	NaN	NaN	NaN	NaN	NaN	NaN	NaN	NaN	NaN	NaN	NaN	NaN	NaN	NaN	NaN
34	33.000	34.000	8.645	15.600	9.230	13.390	4.823	2.286	1.402	6.764	-0.020	0.063	-0.017	34.000	13.910	16.185	16.705	11.375	4.005	5.563	5.537	22.173	-0.146	NaN	0.145	34.000	16.900	16.445	26.585	14.885	6.111	9.810	9.210	56.285	0.166	0.064	-0.128	34.000	23.010	18.980	30.420	17.680	11.449	7.523	7.456	85.362	0.127	0.075	-0.064	34.000	22.490	21.515	24.310	21.905	11.116	1.861	1.861	20.686	-0.075	NaN	0.077	34.000	8.190	20.865	6.175	22.230	3.670	2.434	2.388	8.763	-0.116	-0.054	0.054	34.000	10.140	23.465	9.490	24.830	4.276	1.512	1.504	6.430	-0.102	-0.087	0.028	34.000	19.695	23.205	26.260	25.870	8.957	7.085	7.077	63.388	-0.412	-0.326	0.085	34.000	13.130	25.350	15.275	28.470	6.117	3.786	3.564	21.801	-0.006	NaN	0.037	NaN	NaN	NaN	NaN	NaN	NaN	NaN	NaN	NaN	NaN	NaN	NaN	NaN	NaN	NaN	NaN	NaN	NaN	NaN	NaN	NaN	NaN	NaN	NaN
35	34.000	35.000	8.710	15.600	9.230	13.455	4.680	2.207	1.380	6.460	-0.022	-0.063	0.015	35.000	13.975	16.185	16.705	11.310	3.939	5.587	5.528	21.776	-0.009	0.057	0.032	35.000	16.770	16.510	26.585	14.950	5.904	9.938	9.384	55.398	0.174	-0.010	-0.139	35.000	23.075	18.980	30.420	17.680	11.510	7.459	7.379	84.927	-0.077	NaN	0.064	35.000	22.425	21.450	24.245	21.905	11.065	1.876	1.874	20.732	0.013	-0.063	-0.079	35.000	8.190	20.865	6.175	22.230	3.723	2.434	2.402	8.940	0.014	NaN	NaN	35.000	10.140	23.465	9.490	24.765	4.399	1.453	1.441	6.338	-0.063	-0.058	NaN	35.000	19.630	23.205	25.870	25.740	8.954	6.735	6.721	60.181	-0.356	-0.410	-0.060	35.000	13.065	25.155	15.210	28.340	6.038	3.840	3.617	21.839	0.053	-0.144	-0.198	NaN	NaN	NaN	NaN	NaN	NaN	NaN	NaN	NaN	NaN	NaN	NaN	NaN	NaN	NaN	NaN	NaN	NaN	NaN	NaN	NaN	NaN	NaN	NaN
36	35.000	36.000	8.710	15.600	9.230	13.390	4.732	2.270	1.446	6.845	0.066	0.063	NaN	36.000	13.975	16.185	16.705	11.310	3.991	5.587	5.536	22.093	0.008	NaN	NaN	36.000	16.510	16.575	26.650	14.885	5.676	10.280	9.658	54.815	0.274	0.075	-0.267	36.000	23.010	18.915	30.485	17.680	11.449	7.576	7.518	86.076	0.139	0.064	-0.054	36.000	22.620	21.515	24.310	21.840	11.256	1.721	1.721	19.372	-0.153	0.052	0.204	36.000	8.255	20.865	6.175	22.230	3.637	2.488	2.457	8.936	0.056	NaN	-0.054	36.000	10.140	23.400	9.490	24.765	4.276	1.512	1.504	6.430	0.063	NaN	-0.059	36.000	19.565	23.205	25.675	25.675	8.867	6.590	6.577	58.322	-0.144	-0.205	-0.060	36.000	13.195	25.155	15.145	28.340	6.009	3.735	3.594	21.594	-0.023	-0.034	0.068	NaN	NaN	NaN	NaN	NaN	NaN	NaN	NaN	NaN	NaN	NaN	NaN	NaN	NaN	NaN	NaN	NaN	NaN	NaN	NaN	NaN	NaN	NaN	NaN
37	36.000	37.000	8.710	15.535	9.230	13.390	4.914	2.207	1.386	6.811	-0.061	NaN	0.063	37.000	13.975	16.315	16.705	11.245	3.861	5.758	5.705	22.029	0.169	0.057	-0.114	37.000	16.445	16.705	26.715	14.820	5.474	10.442	9.842	53.877	0.184	0.076	-0.087	37.000	23.205	18.980	30.485	17.680	11.514	7.395	7.326	84.348	-0.192	NaN	0.181	37.000	22.815	21.515	24.375	21.905	11.308	1.608	1.605	18.151	-0.116	0.079	0.189	37.000	8.385	20.800	6.110	22.165	3.585	2.653	2.623	9.405	0.166	0.022	-0.145	37.000	10.270	23.335	9.490	24.765	4.154	1.629	1.611	6.692	0.107	NaN	-0.119	37.000	19.630	23.205	25.480	25.675	8.781	6.350	6.344	55.702	-0.233	-0.180	0.060	37.000	13.260	25.220	15.145	28.340	5.992	3.645	3.503	20.990	-0.090	NaN	0.089	NaN	NaN	NaN	NaN	NaN	NaN	NaN	NaN	NaN	NaN	NaN	NaN	NaN	NaN	NaN	NaN	NaN	NaN	NaN	NaN	NaN	NaN	NaN	NaN
38	37.000	38.000	8.775	15.470	9.230	13.455	5.032	2.066	1.375	6.921	-0.011	-0.063	0.078	38.000	13.975	16.250	16.705	11.180	4.021	5.758	5.725	23.018	0.020	0.057	0.057	38.000	16.315	16.705	26.715	14.885	5.429	10.558	9.799	53.201	-0.043	-0.011	-0.128	38.000	23.270	19.045	30.550	17.615	11.582	7.419	7.337	84.973	0.011	0.076	0.051	38.000	23.075	21.580	24.440	21.905	11.552	1.403	1.401	16.182	-0.204	0.063	0.268	38.000	8.385	20.735	6.110	22.230	3.515	2.722	2.643	9.291	0.020	0.036	-0.036	38.000	10.270	23.335	9.490	24.765	4.032	1.629	1.614	6.507	0.003	NaN	NaN	38.000	19.890	23.335	25.480	25.675	9.016	6.060	6.056	54.604	-0.288	NaN	0.290	38.000	13.195	25.025	15.145	28.340	5.661	3.846	3.712	21.015	0.209	NaN	-0.201	NaN	NaN	NaN	NaN	NaN	NaN	NaN	NaN	NaN	NaN	NaN	NaN	NaN	NaN	NaN	NaN	NaN	NaN	NaN	NaN	NaN	NaN	NaN	NaN
39	38.000	39.000	8.775	15.470	9.230	13.455	5.070	2.066	1.359	6.891	-0.016	NaN	NaN	39.000	13.975	16.250	16.770	11.115	3.984	5.846	5.823	23.199	0.098	0.088	NaN	39.000	16.315	16.770	26.715	14.885	5.340	10.569	9.848	52.589	0.049	NaN	-0.012	39.000	23.205	19.045	30.615	17.550	11.452	7.559	7.470	85.548	0.133	0.077	-0.064	39.000	23.335	21.645	24.570	21.840	11.755	1.250	1.250	14.695	-0.151	0.118	0.267	39.000	8.580	20.670	6.175	22.165	3.371	2.832	2.762	9.312	0.119	-0.090	-0.200	39.000	10.205	23.270	9.490	24.765	4.020	1.657	1.655	6.654	0.042	NaN	-0.031	39.000	20.020	23.270	25.480	25.610	9.048	5.940	5.939	53.742	-0.117	-0.026	0.094	39.000	13.195	25.025	15.210	28.340	5.644	3.879	3.717	20.981	0.005	0.034	NaN	NaN	NaN	NaN	NaN	NaN	NaN	NaN	NaN	NaN	NaN	NaN	NaN	NaN	NaN	NaN	NaN	NaN	NaN	NaN	NaN	NaN	NaN	NaN	NaN
40	39.000	40.000	8.775	15.470	9.230	13.455	5.214	2.066	1.366	7.123	0.007	NaN	NaN	40.000	14.040	16.380	16.770	11.050	3.984	5.988	5.949	23.702	0.126	0.058	-0.086	40.000	16.185	16.900	26.780	14.820	5.175	10.797	10.040	51.955	0.192	0.076	-0.153	40.000	23.270	19.045	30.615	17.485	11.458	7.509	7.422	85.041	-0.049	0.014	0.064	40.000	23.465	21.580	24.635	21.840	11.787	1.199	1.197	14.103	-0.053	0.063	0.113	40.000	8.645	20.540	6.110	22.165	3.295	3.011	2.867	9.447	0.105	0.055	-0.125	40.000	10.205	23.335	9.490	24.765	3.986	1.599	1.597	6.367	-0.058	NaN	0.058	40.000	20.085	23.270	25.480	25.610	8.996	5.881	5.881	52.901	-0.059	NaN	0.060	40.000	13.260	25.285	15.145	28.340	5.770	3.590	3.427	19.773	-0.291	-0.034	0.255	NaN	NaN	NaN	NaN	NaN	NaN	NaN	NaN	NaN	NaN	NaN	NaN	NaN	NaN	NaN	NaN	NaN	NaN	NaN	NaN	NaN	NaN	NaN	NaN
41	40.000	41.000	8.840	15.470	9.230	13.455	5.192	2.052	1.445	7.504	0.079	NaN	0.012	41.000	14.430	16.315	16.770	11.180	4.355	5.643	5.493	23.926	-0.456	-0.118	0.221	41.000	17.420	16.575	26.910	14.820	6.490	9.651	9.130	59.256	-0.910	0.128	1.274	41.000	23.270	19.045	30.680	17.420	11.527	7.586	7.497	86.414	0.075	0.077	NaN	41.000	23.400	21.580	24.765	21.840	11.776	1.390	1.389	16.355	0.192	0.128	-0.064	41.000	8.580	20.605	6.110	22.165	3.295	2.921	2.787	9.185	-0.079	NaN	0.090	41.000	10.140	23.400	9.555	24.700	3.986	1.426	1.426	5.683	-0.172	-0.086	0.086	41.000	20.280	23.400	25.350	25.610	9.260	5.531	5.531	51.215	-0.350	-0.119	0.231	41.000	13.260	25.155	15.145	28.340	5.598	3.701	3.573	20.001	0.146	NaN	-0.112	NaN	NaN	NaN	NaN	NaN	NaN	NaN	NaN	NaN	NaN	NaN	NaN	NaN	NaN	NaN	NaN	NaN	NaN	NaN	NaN	NaN	NaN	NaN	NaN
42	41.000	42.000	8.840	15.470	9.230	13.390	5.210	2.116	1.525	7.943	0.079	0.064	NaN	42.000	14.430	16.315	16.770	11.180	4.447	5.643	5.490	24.412	-0.003	NaN	NaN	42.000	17.290	16.640	26.910	14.755	6.434	9.803	9.292	59.780	0.162	0.012	-0.140	42.000	23.335	19.045	30.680	17.485	11.661	7.509	7.433	86.676	-0.064	-0.014	0.064	42.000	23.140	21.580	24.895	21.905	11.574	1.785	1.784	20.648	0.395	0.140	-0.256	42.000	8.580	20.475	6.110	22.230	3.187	3.030	2.776	8.847	-0.011	0.038	-0.075	42.000	10.075	23.530	9.555	24.765	4.046	1.340	1.340	5.421	-0.086	0.060	0.145	42.000	20.345	23.400	25.350	25.610	9.355	5.471	5.470	51.169	-0.061	NaN	0.059	42.000	13.130	25.090	15.145	28.275	5.456	3.769	3.602	19.650	0.029	-0.055	-0.124	NaN	NaN	NaN	NaN	NaN	NaN	NaN	NaN	NaN	NaN	NaN	NaN	NaN	NaN	NaN	NaN	NaN	NaN	NaN	NaN	NaN	NaN	NaN	NaN
43	42.000	43.000	8.840	15.470	9.230	13.455	5.300	2.052	1.465	7.766	-0.059	-0.064	NaN	43.000	14.365	16.445	16.770	11.115	4.316	5.847	5.703	24.615	0.213	0.059	-0.145	43.000	17.550	16.705	26.910	14.755	6.604	9.561	9.140	60.358	-0.152	NaN	0.241	43.000	23.335	18.980	30.615	17.550	11.606	7.419	7.370	85.531	-0.063	-0.076	0.013	43.000	22.880	21.515	25.220	21.905	11.233	2.372	2.372	26.643	0.588	0.321	-0.267	43.000	8.450	20.605	6.175	22.230	3.391	2.796	2.566	8.704	-0.210	-0.053	0.181	43.000	10.205	23.400	9.555	24.700	3.841	1.453	1.452	5.577	0.112	-0.058	-0.174	43.000	20.410	23.465	25.350	25.545	9.355	5.360	5.360	50.142	-0.110	-0.025	0.085	43.000	13.065	24.765	15.145	28.275	5.045	4.080	3.927	19.815	0.326	NaN	-0.313	NaN	NaN	NaN	NaN	NaN	NaN	NaN	NaN	NaN	NaN	NaN	NaN	NaN	NaN	NaN	NaN	NaN	NaN	NaN	NaN	NaN	NaN	NaN	NaN
44	43.000	44.000	8.840	15.470	9.230	13.455	5.300	2.052	1.465	7.766	NaN	NaN	NaN	44.000	14.365	16.445	16.770	11.115	4.316	5.847	5.703	24.615	NaN	NaN	NaN	44.000	17.680	16.705	26.975	14.755	6.718	9.497	9.108	61.191	-0.031	0.064	0.127	44.000	23.400	18.980	30.680	17.550	11.671	7.419	7.369	86.004	-3.740E-4	0.064	0.064	44.000	22.750	21.515	25.545	21.970	11.105	2.832	2.831	31.442	0.460	0.331	-0.128	44.000	8.385	20.670	6.175	22.165	3.469	2.668	2.490	8.636	-0.077	-0.036	0.090	44.000	10.400	23.140	9.490	24.700	3.525	1.806	1.791	6.312	0.339	0.033	-0.323	44.000	20.475	23.465	25.350	25.610	9.415	5.326	5.324	50.130	-0.036	0.026	0.059	44.000	13.065	24.830	15.210	28.340	5.108	4.114	3.940	20.128	0.013	0.089	0.055	NaN	NaN	NaN	NaN	NaN	NaN	NaN	NaN	NaN	NaN	NaN	NaN	NaN	NaN	NaN	NaN	NaN	NaN	NaN	NaN	NaN	NaN	NaN	NaN
45	44.000	45.000	8.775	15.470	9.230	13.455	5.409	2.066	1.449	7.837	-0.016	NaN	-0.014	45.000	14.365	16.510	16.705	11.245	4.407	5.762	5.608	24.716	-0.095	-0.145	-0.059	45.000	17.745	16.705	26.975	14.755	6.894	9.434	9.031	62.260	-0.078	NaN	0.064	45.000	23.270	19.045	30.810	17.485	11.611	7.700	7.644	88.759	0.275	0.140	-0.140	45.000	22.490	21.515	25.805	21.970	10.893	3.346	3.346	36.449	0.515	0.258	-0.258	45.000	8.255	20.735	6.175	22.165	3.518	2.524	2.327	8.188	-0.162	NaN	0.144	45.000	10.530	23.075	9.490	24.700	3.271	1.929	1.889	6.181	0.099	NaN	-0.125	45.000	20.540	23.465	25.415	25.610	9.488	5.326	5.321	50.485	-0.003	0.059	0.059	45.000	13.260	24.960	15.210	28.340	5.180	3.902	3.810	19.739	-0.130	NaN	0.210	NaN	NaN	NaN	NaN	NaN	NaN	NaN	NaN	NaN	NaN	NaN	NaN	NaN	NaN	NaN	NaN	NaN	NaN	NaN	NaN	NaN	NaN	NaN	NaN
46	45.000	46.000	8.775	15.535	9.230	13.455	5.464	2.129	1.513	8.268	0.064	NaN	-0.063	46.000	14.300	16.575	16.705	11.375	4.420	5.729	5.620	24.843	0.012	-0.118	-0.086	46.000	17.810	16.640	26.975	14.690	7.046	9.370	8.918	62.843	-0.112	0.014	0.077	46.000	23.335	18.980	30.810	17.485	11.694	7.623	7.587	88.721	-0.057	NaN	0.076	46.000	22.230	21.450	26.065	21.905	10.610	3.862	3.862	40.974	0.516	0.251	-0.266	46.000	8.385	20.670	6.175	22.165	3.356	2.668	2.415	8.104	0.088	NaN	-0.144	46.000	10.595	23.010	9.490	24.700	3.066	2.019	1.975	6.054	0.085	NaN	-0.090	46.000	20.670	23.465	25.350	25.610	9.563	5.148	5.133	49.090	-0.188	-0.059	0.118	46.000	13.455	25.350	15.145	28.275	5.488	3.378	3.312	18.176	-0.498	-0.089	0.435	NaN	NaN	NaN	NaN	NaN	NaN	NaN	NaN	NaN	NaN	NaN	NaN	NaN	NaN	NaN	NaN	NaN	NaN	NaN	NaN	NaN	NaN	NaN	NaN
47	46.000	47.000	8.840	15.535	9.230	13.455	5.485	2.116	1.571	8.619	0.058	NaN	0.012	47.000	14.105	16.770	16.640	11.375	4.201	5.961	5.875	24.682	0.255	-0.028	-0.259	47.000	17.745	16.640	26.910	14.755	7.023	9.357	8.848	62.141	-0.070	-0.077	-0.064	47.000	23.270	18.980	30.745	17.485	11.636	7.623	7.591	88.332	0.004	-0.064	-0.064	47.000	21.970	21.385	26.195	21.905	10.336	4.257	4.257	43.999	0.395	0.129	-0.266	47.000	8.320	20.670	6.240	22.165	3.410	2.562	2.261	7.711	-0.154	-0.053	0.053	47.000	10.595	23.010	9.490	24.700	3.006	2.019	1.978	5.945	0.003	NaN	NaN	47.000	20.865	23.465	25.350	25.610	9.724	4.972	4.944	48.076	-0.189	NaN	0.176	47.000	13.520	25.415	15.210	28.340	5.509	3.378	3.319	18.286	0.007	0.089	0.089	NaN	NaN	NaN	NaN	NaN	NaN	NaN	NaN	NaN	NaN	NaN	NaN	NaN	NaN	NaN	NaN	NaN	NaN	NaN	NaN	NaN	NaN	NaN	NaN
48	47.000	48.000	8.840	15.600	9.230	13.455	5.451	2.180	1.642	8.949	0.070	NaN	-0.064	48.000	14.040	16.640	16.640	11.375	4.363	5.872	5.826	25.418	-0.049	NaN	0.088	48.000	17.615	16.640	26.910	14.755	7.001	9.484	8.920	62.446	0.072	NaN	-0.127	48.000	23.140	18.980	30.745	17.485	11.578	7.751	7.725	89.439	0.133	NaN	-0.128	48.000	21.580	21.320	26.325	21.905	9.999	4.781	4.780	47.797	0.523	0.129	-0.395	48.000	8.190	20.865	6.175	22.165	3.494	2.398	2.204	7.702	-0.057	0.055	0.215	48.000	10.595	23.010	9.425	24.700	2.921	2.055	1.996	5.831	0.018	0.037	NaN	48.000	20.995	23.465	25.350	25.610	9.887	4.855	4.814	47.595	-0.130	NaN	0.117	48.000	13.585	25.935	15.275	28.405	5.982	2.993	2.886	17.263	-0.433	0.090	0.466	NaN	NaN	NaN	NaN	NaN	NaN	NaN	NaN	NaN	NaN	NaN	NaN	NaN	NaN	NaN	NaN	NaN	NaN	NaN	NaN	NaN	NaN	NaN	NaN
49	48.000	49.000	8.840	15.600	9.230	13.455	5.535	2.180	1.573	8.708	-0.068	NaN	NaN	49.000	14.040	16.575	16.640	11.505	4.225	5.698	5.688	24.032	-0.138	-0.116	0.058	49.000	17.615	16.640	26.780	14.820	6.745	9.344	8.737	58.930	-0.183	-0.140	NaN	49.000	23.660	18.915	30.615	17.615	11.837	7.075	7.056	83.516	-0.669	-0.152	0.523	49.000	21.515	21.320	26.455	21.970	9.683	4.983	4.982	48.241	0.202	0.137	-0.064	49.000	8.125	20.865	6.175	22.165	3.826	2.344	2.143	8.197	-0.062	NaN	0.054	49.000	10.660	23.010	9.490	24.700	3.056	2.055	2.019	6.169	0.023	-0.037	-0.037	49.000	21.125	23.465	25.415	25.610	9.785	4.796	4.759	46.568	-0.055	0.058	0.116	49.000	13.650	26.000	15.275	28.470	6.045	2.957	2.835	17.141	-0.051	0.054	0.090	NaN	NaN	NaN	NaN	NaN	NaN	NaN	NaN	NaN	NaN	NaN	NaN	NaN	NaN	NaN	NaN	NaN	NaN	NaN	NaN	NaN	NaN	NaN	NaN
50	49.000	50.000	8.775	15.665	9.230	13.455	5.535	2.256	1.592	8.809	0.018	NaN	-0.077	50.000	14.105	16.445	16.575	11.635	4.459	5.407	5.397	24.066	-0.291	-0.145	0.145	50.000	17.615	16.575	26.780	14.820	6.870	9.332	8.664	59.522	-0.072	NaN	0.012	50.000	23.465	18.915	30.615	17.615	11.715	7.267	7.253	84.965	0.197	NaN	-0.192	50.000	21.190	21.320	26.650	21.840	9.418	5.485	5.484	51.646	0.502	0.182	-0.324	50.000	8.255	20.865	6.175	22.165	3.623	2.453	2.263	8.197	0.120	NaN	-0.110	50.000	10.660	23.010	9.490	24.700	2.970	2.055	2.014	5.983	-0.004	NaN	NaN	50.000	21.125	23.530	25.350	25.545	9.847	4.681	4.653	45.820	-0.106	-0.087	0.028	50.000	13.650	25.935	15.340	28.535	5.941	3.101	2.993	17.779	0.157	0.090	-0.054	NaN	NaN	NaN	NaN	NaN	NaN	NaN	NaN	NaN	NaN	NaN	NaN	NaN	NaN	NaN	NaN	NaN	NaN	NaN	NaN	NaN	NaN	NaN	NaN
51	50.000	51.000	8.840	15.600	9.230	13.455	5.429	2.180	1.618	8.784	0.026	NaN	0.076	51.000	14.105	16.380	16.575	11.570	4.527	5.407	5.387	24.387	-0.010	0.058	0.058	51.000	17.615	16.575	26.780	14.820	6.945	9.332	8.725	60.599	0.061	NaN	NaN	51.000	23.205	18.915	30.615	17.550	11.578	7.535	7.516	87.027	0.264	0.012	-0.256	51.000	21.255	21.385	26.780	21.905	9.626	5.549	5.547	53.400	0.063	0.136	0.071	51.000	8.190	20.865	6.175	22.165	3.570	2.398	2.218	7.918	-0.045	NaN	0.055	51.000	10.660	23.010	9.490	24.700	2.982	2.055	1.992	5.940	-0.022	NaN	NaN	51.000	21.190	23.530	25.350	25.545	10.052	4.622	4.592	46.158	-0.062	NaN	0.058	51.000	13.650	26.000	15.405	28.600	6.105	3.137	3.024	18.463	0.032	0.090	0.054	NaN	NaN	NaN	NaN	NaN	NaN	NaN	NaN	NaN	NaN	NaN	NaN	NaN	NaN	NaN	NaN	NaN	NaN	NaN	NaN	NaN	NaN	NaN	NaN
52	51.000	52.000	8.840	15.600	9.230	13.520	5.285	2.116	1.559	8.239	-0.059	-0.064	NaN	52.000	14.105	16.445	16.640	11.505	4.399	5.552	5.511	24.243	0.124	0.088	-0.058	52.000	17.745	16.445	26.845	14.820	7.112	9.244	8.650	61.516	-0.076	0.064	0.151	52.000	23.140	18.915	30.615	17.615	11.564	7.587	7.568	87.521	0.052	-0.011	-0.064	52.000	21.450	21.450	26.975	21.970	9.909	5.549	5.544	54.938	-0.003	0.200	0.200	52.000	8.255	20.735	6.175	22.165	3.442	2.524	2.313	7.960	0.095	NaN	-0.127	52.000	10.660	23.010	9.555	24.635	3.083	1.965	1.891	5.831	-0.101	-0.090	NaN	52.000	21.255	23.595	25.350	25.610	10.240	4.564	4.538	46.467	-0.054	0.029	0.087	52.000	13.455	25.675	15.275	28.405	5.879	3.281	3.159	18.573	0.135	-0.234	-0.379	NaN	NaN	NaN	NaN	NaN	NaN	NaN	NaN	NaN	NaN	NaN	NaN	NaN	NaN	NaN	NaN	NaN	NaN	NaN	NaN	NaN	NaN	NaN	NaN
53	52.000	53.000	8.775	15.665	9.230	13.455	5.175	2.256	1.614	8.353	0.055	0.064	-0.077	53.000	14.105	16.315	16.705	11.440	4.489	5.525	5.492	24.653	-0.020	0.088	0.115	53.000	17.680	16.510	26.845	14.820	7.046	9.320	8.789	61.930	0.139	NaN	-0.076	53.000	23.010	18.915	30.615	17.615	11.493	7.715	7.695	88.438	0.127	NaN	-0.128	53.000	21.580	21.450	26.975	21.970	10.112	5.420	5.414	54.748	-0.130	NaN	0.129	53.000	8.255	20.735	6.175	22.165	3.391	2.524	2.335	7.918	0.022	NaN	NaN	53.000	10.595	23.010	9.555	24.635	3.145	1.929	1.867	5.873	-0.024	NaN	0.035	53.000	21.320	23.595	25.350	25.610	10.385	4.506	4.477	46.496	-0.060	NaN	0.058	53.000	13.325	25.415	15.210	28.340	5.673	3.480	3.365	19.089	0.205	-0.090	-0.289	NaN	NaN	NaN	NaN	NaN	NaN	NaN	NaN	NaN	NaN	NaN	NaN	NaN	NaN	NaN	NaN	NaN	NaN	NaN	NaN	NaN	NaN	NaN	NaN
54	53.000	54.000	8.840	15.535	9.230	13.455	5.306	2.116	1.583	8.399	-0.031	NaN	0.140	54.000	14.235	16.380	16.640	11.440	4.564	5.494	5.415	24.712	-0.077	-0.028	-0.002	54.000	17.550	16.510	26.845	14.820	6.967	9.447	8.845	61.626	0.056	NaN	-0.128	54.000	23.010	18.915	30.615	17.615	11.500	7.715	7.698	88.522	0.003	NaN	NaN	54.000	21.645	21.450	26.910	21.905	10.167	5.285	5.278	53.666	-0.136	-0.070	0.065	54.000	8.320	20.670	6.175	22.165	3.302	2.615	2.376	7.846	0.041	NaN	-0.090	54.000	10.660	23.010	9.555	24.635	3.063	1.965	1.880	5.759	0.013	NaN	-0.037	54.000	21.320	23.530	25.350	25.545	10.341	4.506	4.471	46.234	-0.006	-0.029	-0.029	54.000	13.325	25.350	15.210	28.275	5.550	3.480	3.371	18.708	0.006	-0.055	-0.055	NaN	NaN	NaN	NaN	NaN	NaN	NaN	NaN	NaN	NaN	NaN	NaN	NaN	NaN	NaN	NaN	NaN	NaN	NaN	NaN	NaN	NaN	NaN	NaN
55	54.000	55.000	8.775	15.535	9.230	13.455	5.251	2.129	1.540	8.087	-0.043	NaN	-0.014	55.000	14.235	16.315	16.640	11.375	4.602	5.494	5.404	24.868	-0.011	0.058	0.058	55.000	17.680	16.445	26.845	14.820	7.135	9.308	8.746	62.403	-0.099	NaN	0.139	55.000	22.945	18.915	30.615	17.615	11.493	7.779	7.759	89.181	0.062	NaN	-0.064	55.000	21.710	21.450	26.910	21.905	10.305	5.220	5.213	53.717	-0.066	NaN	0.065	55.000	8.190	20.735	6.110	22.165	3.391	2.524	2.335	7.918	-0.041	0.054	0.144	55.000	10.530	23.075	9.555	24.635	3.207	1.840	1.783	5.716	-0.097	NaN	0.124	55.000	21.450	23.530	25.415	25.610	10.546	4.477	4.431	46.733	-0.040	0.088	0.115	55.000	13.260	25.350	15.145	28.275	5.611	3.480	3.368	18.898	-0.003	-0.035	-0.035	NaN	NaN	NaN	NaN	NaN	NaN	NaN	NaN	NaN	NaN	NaN	NaN	NaN	NaN	NaN	NaN	NaN	NaN	NaN	NaN	NaN	NaN	NaN	NaN
56	55.000	56.000	8.840	15.535	9.230	13.455	5.217	2.116	1.589	8.289	0.049	NaN	0.012	56.000	14.170	16.380	16.705	11.245	4.511	5.727	5.641	25.447	0.237	0.145	-0.087	56.000	17.680	16.510	26.845	14.820	7.103	9.320	8.803	62.526	0.057	NaN	-0.012	56.000	22.880	18.915	30.550	17.615	11.429	7.779	7.760	88.683	3.032E-4	-0.064	-0.064	56.000	21.840	21.515	27.040	21.970	10.443	5.220	5.212	54.422	-0.001	0.135	0.135	56.000	8.255	20.735	6.175	22.165	3.328	2.524	2.339	7.782	0.004	-0.054	-0.054	56.000	10.595	22.945	9.555	24.635	3.063	1.984	1.923	5.890	0.140	NaN	-0.145	56.000	21.320	23.465	25.415	25.610	10.402	4.623	4.574	47.582	0.143	NaN	-0.145	56.000	13.195	25.220	15.145	28.275	5.468	3.624	3.508	19.182	0.140	NaN	-0.145	NaN	NaN	NaN	NaN	NaN	NaN	NaN	NaN	NaN	NaN	NaN	NaN	NaN	NaN	NaN	NaN	NaN	NaN	NaN	NaN	NaN	NaN	NaN	NaN
57	56.000	57.000	8.840	15.535	9.230	13.455	5.161	2.116	1.580	8.154	-0.009	NaN	NaN	57.000	14.365	16.185	16.770	11.180	4.732	5.553	5.441	25.747	-0.200	0.087	0.260	57.000	17.680	16.575	26.845	14.755	7.040	9.344	8.913	62.745	0.110	0.013	-0.013	57.000	22.945	18.915	30.615	17.550	11.487	7.791	7.762	89.164	0.002	0.075	0.064	57.000	21.905	21.515	27.300	22.035	10.516	5.420	5.412	56.919	0.201	0.265	0.065	57.000	8.320	20.670	6.175	22.165	3.264	2.615	2.420	7.901	0.082	NaN	-0.090	57.000	10.595	22.945	9.555	24.700	3.125	2.040	1.982	6.194	0.059	0.056	NaN	57.000	21.190	23.465	25.350	25.545	10.301	4.651	4.620	47.590	0.045	-0.087	-0.116	57.000	13.195	25.090	15.145	28.210	5.406	3.679	3.573	19.317	0.065	-0.055	-0.110	NaN	NaN	NaN	NaN	NaN	NaN	NaN	NaN	NaN	NaN	NaN	NaN	NaN	NaN	NaN	NaN	NaN	NaN	NaN	NaN	NaN	NaN	NaN	NaN
58	57.000	58.000	8.840	15.535	9.230	13.520	5.140	2.052	1.500	7.711	-0.080	-0.064	NaN	58.000	14.300	16.185	16.770	11.180	4.602	5.581	5.495	25.287	0.054	NaN	-0.029	58.000	17.550	16.705	26.780	14.755	6.775	9.434	9.063	61.406	0.150	-0.064	-0.154	58.000	23.010	18.915	30.615	17.550	11.481	7.727	7.693	88.332	-0.069	NaN	0.064	58.000	21.775	21.385	26.650	21.970	10.314	4.910	4.908	50.624	-0.504	-0.653	-0.145	58.000	8.190	20.800	6.175	22.165	3.500	2.434	2.301	8.053	-0.120	NaN	0.181	58.000	10.595	23.010	9.490	24.700	3.269	2.019	1.943	6.350	-0.039	0.036	0.054	58.000	21.125	23.400	25.350	25.610	10.179	4.768	4.728	48.127	0.108	0.030	-0.088	58.000	13.130	25.155	15.145	28.275	5.491	3.714	3.564	19.570	-0.009	0.055	0.019	NaN	NaN	NaN	NaN	NaN	NaN	NaN	NaN	NaN	NaN	NaN	NaN	NaN	NaN	NaN	NaN	NaN	NaN	NaN	NaN	NaN	NaN	NaN	NaN
59	58.000	59.000	8.840	15.470	9.230	13.455	5.016	2.052	1.521	7.630	0.021	0.064	0.064	59.000	14.365	16.250	16.705	11.180	4.569	5.584	5.393	24.640	-0.102	-0.027	-0.032	59.000	17.355	16.835	26.715	14.820	6.599	9.574	9.283	61.258	0.220	-0.077	-0.218	59.000	22.815	18.850	30.615	17.485	11.411	7.919	7.884	89.967	0.191	0.011	-0.181	59.000	21.580	21.385	26.390	21.905	10.269	4.838	4.832	49.618	-0.077	-0.265	-0.194	59.000	8.320	20.605	6.175	22.165	3.232	2.652	2.478	8.011	0.178	NaN	-0.220	59.000	10.595	22.945	9.555	24.700	3.295	2.040	1.963	6.468	0.020	-0.033	-0.056	59.000	20.930	23.270	25.415	25.610	10.118	5.059	5.018	50.776	0.290	0.058	-0.233	59.000	13.065	25.025	15.210	28.275	5.510	3.894	3.738	20.597	0.174	0.036	-0.144	NaN	NaN	NaN	NaN	NaN	NaN	NaN	NaN	NaN	NaN	NaN	NaN	NaN	NaN	NaN	NaN	NaN	NaN	NaN	NaN	NaN	NaN	NaN	NaN
60	59.000	60.000	8.840	15.340	9.230	13.455	5.106	1.925	1.404	7.170	-0.117	NaN	0.127	60.000	14.365	16.250	16.705	11.115	4.477	5.643	5.446	24.382	0.053	0.059	NaN	60.000	17.225	16.900	26.650	14.885	6.366	9.638	9.353	59.543	0.069	-0.077	-0.141	60.000	22.880	18.850	30.550	17.485	11.406	7.791	7.750	88.400	-0.134	-0.064	0.064	60.000	21.450	21.320	26.195	21.905	10.077	4.781	4.777	48.140	-0.054	-0.194	-0.137	60.000	8.320	20.670	6.175	22.165	3.331	2.615	2.489	8.289	0.010	NaN	0.037	60.000	10.530	23.010	9.490	24.765	3.455	2.040	1.977	6.832	0.014	0.089	0.089	60.000	20.670	23.205	25.415	25.610	9.814	5.320	5.291	51.929	0.273	NaN	-0.261	60.000	13.000	25.025	15.210	28.275	5.536	3.930	3.726	20.626	-0.012	NaN	-0.037	NaN	NaN	NaN	NaN	NaN	NaN	NaN	NaN	NaN	NaN	NaN	NaN	NaN	NaN	NaN	NaN	NaN	NaN	NaN	NaN	NaN	NaN	NaN	NaN
61	60.000	61.000	8.775	15.405	9.230	13.455	5.120	2.002	1.385	7.094	-0.019	NaN	-0.078	61.000	14.300	16.380	16.705	11.115	4.294	5.788	5.593	24.019	0.147	NaN	-0.145	61.000	17.225	16.965	26.585	14.885	6.279	9.588	9.333	58.609	-0.019	-0.063	-0.014	61.000	23.010	18.980	30.550	17.485	11.462	7.687	7.619	87.327	-0.131	NaN	0.102	61.000	21.710	21.320	25.935	21.970	10.269	4.275	4.275	43.898	-0.503	-0.247	0.257	61.000	8.320	20.800	6.175	22.165	3.433	2.542	2.470	8.480	-0.018	NaN	0.070	61.000	10.530	23.010	9.490	24.765	3.474	2.040	1.986	6.899	0.009	NaN	NaN	61.000	20.670	23.205	25.415	25.610	9.753	5.320	5.293	51.621	0.001	NaN	NaN	61.000	12.870	25.025	15.145	28.275	5.486	3.967	3.697	20.280	-0.030	-0.037	-0.075	NaN	NaN	NaN	NaN	NaN	NaN	NaN	NaN	NaN	NaN	NaN	NaN	NaN	NaN	NaN	NaN	NaN	NaN	NaN	NaN	NaN	NaN	NaN	NaN
62	61.000	62.000	8.775	15.340	9.230	13.390	5.030	2.002	1.391	6.997	0.005	0.063	0.063	62.000	14.235	16.250	16.770	10.985	4.294	5.843	5.676	24.374	0.083	0.145	0.089	62.000	17.095	16.965	26.585	14.885	6.165	9.715	9.482	58.457	0.149	NaN	-0.127	62.000	22.945	18.980	30.550	17.550	11.455	7.738	7.668	87.838	0.050	-0.012	-0.064	62.000	21.775	21.450	25.610	21.905	10.442	3.862	3.854	40.243	-0.420	-0.330	0.080	62.000	8.255	20.800	6.175	22.165	3.477	2.488	2.429	8.446	-0.041	NaN	0.054	62.000	10.595	23.010	9.555	24.765	3.563	2.040	1.962	6.992	-0.023	-0.033	-0.033	62.000	20.475	23.205	25.415	25.610	9.680	5.494	5.482	53.066	0.189	NaN	-0.175	62.000	12.805	24.830	15.145	28.275	5.423	4.165	3.905	21.180	0.209	NaN	-0.198	NaN	NaN	NaN	NaN	NaN	NaN	NaN	NaN	NaN	NaN	NaN	NaN	NaN	NaN	NaN	NaN	NaN	NaN	NaN	NaN	NaN	NaN	NaN	NaN
63	62.000	63.000	8.710	15.405	9.230	13.455	4.851	2.018	1.294	6.278	-0.097	-0.063	-0.080	63.000	14.235	16.315	16.835	10.985	4.097	5.930	5.707	23.381	0.031	0.028	-0.058	63.000	17.030	17.030	26.585	14.885	6.000	9.793	9.635	57.811	0.153	NaN	-0.078	63.000	22.945	18.915	30.615	17.550	11.449	7.791	7.718	88.366	0.050	0.064	0.011	63.000	21.710	21.450	25.350	21.905	10.415	3.668	3.658	38.093	-0.197	-0.258	-0.064	63.000	8.255	20.735	6.175	22.165	3.525	2.524	2.471	8.712	0.042	NaN	-0.037	63.000	10.465	23.075	9.555	24.700	3.848	1.862	1.810	6.967	-0.152	-0.057	0.120	63.000	20.410	23.270	25.415	25.610	9.722	5.525	5.523	53.696	0.042	NaN	-0.031	63.000	12.935	24.830	15.145	28.210	5.644	4.038	3.830	21.615	-0.076	-0.054	0.071	NaN	NaN	NaN	NaN	NaN	NaN	NaN	NaN	NaN	NaN	NaN	NaN	NaN	NaN	NaN	NaN	NaN	NaN	NaN	NaN	NaN	NaN	NaN	NaN
64	63.000	64.000	8.840	15.340	9.230	13.390	4.831	1.989	1.411	6.819	0.117	0.064	0.089	64.000	14.105	16.380	16.835	10.855	3.962	6.163	5.961	23.618	0.254	0.117	-0.116	64.000	17.290	16.900	26.585	14.885	6.290	9.511	9.340	58.749	-0.295	NaN	0.282	64.000	22.880	18.980	30.615	17.615	11.382	7.855	7.777	88.518	0.059	-0.011	-0.075	64.000	21.580	21.385	25.025	21.905	10.275	3.484	3.480	35.756	-0.177	-0.321	-0.138	64.000	8.190	20.800	6.175	22.165	3.610	2.434	2.391	8.632	-0.081	NaN	0.090	64.000	10.465	23.075	9.490	24.700	3.848	1.895	1.828	7.035	0.018	0.033	NaN	64.000	20.345	23.465	25.350	25.610	9.742	5.445	5.443	53.028	-0.080	-0.060	0.017	64.000	12.935	24.765	15.145	28.275	5.581	4.148	3.959	22.097	0.129	0.055	-0.055	NaN	NaN	NaN	NaN	NaN	NaN	NaN	NaN	NaN	NaN	NaN	NaN	NaN	NaN	NaN	NaN	NaN	NaN	NaN	NaN	NaN	NaN	NaN	NaN
65	64.000	65.000	8.840	15.275	9.230	13.455	4.886	1.861	1.313	6.414	-0.099	-0.064	0.064	65.000	14.040	16.445	16.900	10.790	3.871	6.337	6.147	23.791	0.186	0.087	-0.087	65.000	17.290	16.900	26.585	14.885	6.290	9.511	9.340	58.749	NaN	NaN	NaN	65.000	22.880	18.850	30.615	17.550	11.387	7.843	7.786	88.662	0.009	0.011	0.022	65.000	21.515	21.450	24.895	21.840	10.224	3.402	3.389	34.645	-0.091	-0.137	-0.057	65.000	8.320	20.735	6.240	22.100	3.465	2.488	2.450	8.488	0.059	-0.090	-0.144	65.000	10.465	23.075	9.555	24.700	3.848	1.862	1.810	6.967	-0.018	-0.032	NaN	65.000	20.475	23.660	25.350	25.545	9.943	5.227	5.211	51.815	-0.232	-0.023	0.192	65.000	13.000	24.895	15.145	28.210	5.724	3.948	3.760	21.522	-0.199	-0.055	0.144	NaN	NaN	NaN	NaN	NaN	NaN	NaN	NaN	NaN	NaN	NaN	NaN	NaN	NaN	NaN	NaN	NaN	NaN	NaN	NaN	NaN	NaN	NaN	NaN
66	65.000	66.000	8.905	15.340	9.230	13.455	4.831	1.913	1.393	6.730	0.080	NaN	-0.053	66.000	14.170	16.510	16.900	10.790	3.865	6.338	6.069	23.457	-0.078	NaN	-0.003	66.000	17.225	16.965	26.585	14.885	6.145	9.588	9.427	57.933	0.088	NaN	-0.078	66.000	23.075	18.915	30.615	17.550	11.514	7.663	7.588	87.369	-0.198	NaN	0.180	66.000	22.035	21.450	24.765	21.840	10.670	2.758	2.754	29.381	-0.635	-0.129	0.515	66.000	8.255	20.735	6.175	22.165	3.585	2.524	2.468	8.847	0.018	0.090	0.054	66.000	10.530	23.075	9.555	24.635	3.848	1.840	1.765	6.794	-0.045	-0.055	-0.034	66.000	20.475	23.725	25.480	25.610	9.913	5.348	5.324	52.779	0.113	0.145	0.023	66.000	13.195	25.025	15.145	28.275	5.884	3.790	3.662	21.548	-0.098	0.056	0.212	NaN	NaN	NaN	NaN	NaN	NaN	NaN	NaN	NaN	NaN	NaN	NaN	NaN	NaN	NaN	NaN	NaN	NaN	NaN	NaN	NaN	NaN	NaN	NaN
67	66.000	67.000	8.840	15.340	9.230	13.455	4.868	1.925	1.342	6.532	-0.051	NaN	-0.013	67.000	14.235	16.640	16.835	10.920	3.815	6.283	5.909	22.545	-0.160	-0.145	-0.091	67.000	17.290	17.030	26.585	14.885	6.180	9.539	9.415	58.187	-0.012	NaN	0.049	67.000	23.010	18.915	30.615	17.550	11.449	7.727	7.653	87.622	0.065	NaN	-0.064	67.000	21.775	21.450	24.830	21.840	10.415	3.080	3.071	31.987	0.318	0.064	-0.258	67.000	8.125	20.800	6.240	22.165	3.730	2.327	2.264	8.446	-0.204	-0.053	0.143	67.000	10.530	23.075	9.555	24.700	3.848	1.895	1.828	7.035	0.063	0.056	NaN	67.000	20.605	23.790	25.480	25.545	10.058	5.181	5.150	51.803	-0.174	-0.022	0.144	67.000	13.325	25.155	15.145	28.210	6.045	3.556	3.452	20.867	-0.210	-0.056	0.178	NaN	NaN	NaN	NaN	NaN	NaN	NaN	NaN	NaN	NaN	NaN	NaN	NaN	NaN	NaN	NaN	NaN	NaN	NaN	NaN	NaN	NaN	NaN	NaN
68	67.000	68.000	8.905	15.340	9.230	13.520	4.851	1.849	1.362	6.608	0.020	-0.064	0.011	68.000	14.300	16.445	16.835	10.920	4.093	6.079	5.767	23.605	-0.142	NaN	0.204	68.000	17.420	17.030	26.585	14.885	6.385	9.413	9.298	59.370	-0.117	NaN	0.127	68.000	22.945	18.915	30.550	17.615	11.452	7.715	7.656	87.677	0.003	-0.075	-0.064	68.000	21.645	21.450	24.830	21.840	10.338	3.209	3.200	33.082	0.129	NaN	-0.129	68.000	8.125	20.865	6.175	22.165	3.670	2.344	2.302	8.450	0.038	0.054	0.036	68.000	10.465	23.075	9.555	24.700	3.786	1.862	1.812	6.861	-0.016	NaN	0.032	68.000	20.605	23.855	25.415	25.545	10.117	5.098	5.065	51.241	-0.085	-0.061	0.022	68.000	13.260	25.090	15.145	28.210	5.921	3.645	3.539	20.952	0.087	NaN	-0.089	NaN	NaN	NaN	NaN	NaN	NaN	NaN	NaN	NaN	NaN	NaN	NaN	NaN	NaN	NaN	NaN	NaN	NaN	NaN	NaN	NaN	NaN	NaN	NaN
69	68.000	69.000	8.970	15.405	9.230	13.455	4.927	1.967	1.538	7.580	0.176	0.064	-0.056	69.000	14.300	16.575	16.835	10.920	4.141	6.197	5.883	24.361	0.116	NaN	-0.119	69.000	17.355	16.965	26.715	14.820	6.428	9.603	9.407	60.472	0.109	0.141	-0.049	69.000	22.945	18.850	30.615	17.615	11.467	7.769	7.736	88.708	0.080	0.064	0.010	69.000	21.580	21.450	24.895	21.840	10.238	3.338	3.332	34.108	0.132	0.065	-0.065	69.000	8.125	20.865	6.175	22.165	3.599	2.344	2.278	8.197	-0.025	NaN	NaN	69.000	10.595	23.010	9.555	24.635	3.500	1.929	1.839	6.439	0.027	-0.055	-0.125	69.000	20.735	23.985	25.415	25.545	10.206	4.933	4.898	49.990	-0.167	NaN	0.164	69.000	13.390	25.285	15.145	28.210	5.961	3.411	3.330	19.849	-0.209	NaN	0.234	NaN	NaN	NaN	NaN	NaN	NaN	NaN	NaN	NaN	NaN	NaN	NaN	NaN	NaN	NaN	NaN	NaN	NaN	NaN	NaN	NaN	NaN	NaN	NaN
70	69.000	70.000	8.840	15.340	9.230	13.455	4.922	1.925	1.352	6.654	-0.186	NaN	0.037	70.000	14.300	16.575	16.835	10.920	3.954	6.197	5.841	23.094	-0.043	NaN	NaN	70.000	17.290	17.030	26.780	14.820	6.205	9.744	9.605	59.598	0.198	0.063	-0.078	70.000	23.075	18.915	30.550	17.680	11.517	7.576	7.523	86.642	-0.213	-0.075	0.118	70.000	21.515	21.450	25.025	21.905	10.147	3.539	3.530	35.824	0.199	0.137	-0.064	70.000	8.125	20.865	6.175	22.165	3.730	2.344	2.299	8.577	0.022	NaN	NaN	70.000	10.335	23.205	9.555	24.635	3.967	1.629	1.602	6.354	-0.238	NaN	0.296	70.000	20.800	24.115	25.480	25.545	10.349	4.894	4.821	49.889	-0.077	0.062	0.100	70.000	13.390	25.350	15.145	28.210	6.189	3.356	3.250	20.111	-0.080	NaN	0.055	NaN	NaN	NaN	NaN	NaN	NaN	NaN	NaN	NaN	NaN	NaN	NaN	NaN	NaN	NaN	NaN	NaN	NaN	NaN	NaN	NaN	NaN	NaN	NaN
71	70.000	71.000	8.905	15.340	9.230	13.455	4.976	1.913	1.398	6.954	0.046	NaN	0.011	71.000	14.495	16.185	16.900	10.790	4.378	5.907	5.656	24.763	-0.185	0.145	0.436	71.000	17.290	17.030	26.975	14.755	6.171	9.949	9.786	60.388	0.181	0.205	NaN	71.000	23.205	18.915	30.680	17.550	11.585	7.599	7.534	87.284	0.011	0.151	0.128	71.000	21.450	21.450	25.220	21.905	10.007	3.797	3.786	37.890	0.256	0.194	-0.065	71.000	8.125	20.865	6.175	22.165	3.766	2.344	2.289	8.619	-0.011	NaN	NaN	71.000	10.270	23.270	9.555	24.635	4.010	1.541	1.527	6.122	-0.075	NaN	0.088	71.000	20.930	24.115	25.480	25.610	10.378	4.789	4.740	49.192	-0.081	0.020	0.124	71.000	13.325	25.415	15.145	28.210	6.152	3.335	3.187	19.608	-0.062	NaN	0.019	NaN	NaN	NaN	NaN	NaN	NaN	NaN	NaN	NaN	NaN	NaN	NaN	NaN	NaN	NaN	NaN	NaN	NaN	NaN	NaN	NaN	NaN	NaN	NaN
72	71.000	72.000	8.905	15.340	9.230	13.455	5.030	1.913	1.407	7.077	0.009	NaN	NaN	72.000	14.430	16.315	16.965	10.855	4.287	6.020	5.793	24.830	0.137	-0.032	-0.145	72.000	17.095	17.095	27.040	14.755	5.993	10.217	10.025	60.080	0.240	0.063	-0.205	72.000	23.205	18.915	30.680	17.550	11.588	7.599	7.540	87.373	0.005	NaN	NaN	72.000	21.515	21.385	25.285	21.905	10.046	3.806	3.802	38.194	0.015	0.064	0.056	72.000	8.060	20.865	6.175	22.165	3.804	2.290	2.216	8.429	-0.073	NaN	0.054	72.000	10.400	23.205	9.555	24.700	3.844	1.717	1.687	6.485	0.160	0.057	-0.121	72.000	20.995	24.115	25.545	25.610	10.407	4.789	4.746	49.390	0.006	0.062	0.062	72.000	13.325	25.415	15.210	28.210	6.089	3.371	3.208	19.536	0.021	0.036	NaN	NaN	NaN	NaN	NaN	NaN	NaN	NaN	NaN	NaN	NaN	NaN	NaN	NaN	NaN	NaN	NaN	NaN	NaN	NaN	NaN	NaN	NaN	NaN	NaN
73	72.000	73.000	8.905	15.275	9.230	13.455	5.066	1.849	1.339	6.781	-0.068	NaN	0.064	73.000	14.495	15.990	16.900	10.855	4.487	5.670	5.515	24.746	-0.277	-0.028	0.322	73.000	16.770	17.160	27.040	14.755	5.584	10.548	10.333	57.697	0.307	NaN	-0.331	73.000	23.270	18.980	30.680	17.550	11.582	7.547	7.467	86.477	-0.073	NaN	0.052	73.000	21.515	21.385	25.350	21.905	9.994	3.870	3.864	38.621	0.062	0.064	NaN	73.000	8.060	20.865	6.175	22.165	3.888	2.290	2.221	8.636	0.006	NaN	NaN	73.000	10.335	23.205	9.555	24.635	3.948	1.629	1.611	6.363	-0.076	-0.057	0.031	73.000	21.190	24.245	25.415	25.545	10.610	4.420	4.360	46.264	-0.385	-0.143	0.225	73.000	13.195	25.220	15.145	28.210	5.912	3.570	3.386	20.018	0.178	-0.036	-0.234	NaN	NaN	NaN	NaN	NaN	NaN	NaN	NaN	NaN	NaN	NaN	NaN	NaN	NaN	NaN	NaN	NaN	NaN	NaN	NaN	NaN	NaN	NaN	NaN
74	73.000	74.000	8.840	15.275	9.230	13.455	5.030	1.861	1.317	6.625	-0.022	NaN	-0.014	74.000	14.625	15.535	16.835	10.985	5.005	5.058	4.953	24.792	-0.562	-0.145	0.466	74.000	16.705	17.225	27.040	14.820	5.616	10.611	10.423	58.542	0.091	-0.015	-0.078	74.000	23.075	18.915	30.550	17.615	11.520	7.587	7.531	86.760	0.065	-0.139	-0.181	74.000	21.190	21.450	25.350	21.905	9.816	4.185	4.167	40.906	0.303	NaN	-0.316	74.000	7.930	20.995	6.175	22.165	3.935	2.109	2.068	8.137	-0.154	NaN	0.180	74.000	10.205	23.400	9.555	24.700	4.132	1.453	1.442	5.957	-0.170	0.058	0.233	74.000	21.385	24.245	25.415	25.610	10.902	4.255	4.222	46.031	-0.138	0.021	0.185	74.000	13.065	25.155	15.145	28.210	5.849	3.696	3.485	20.386	0.099	NaN	-0.127	NaN	NaN	NaN	NaN	NaN	NaN	NaN	NaN	NaN	NaN	NaN	NaN	NaN	NaN	NaN	NaN	NaN	NaN	NaN	NaN	NaN	NaN	NaN	NaN
75	74.000	75.000	8.905	15.275	9.230	13.520	4.940	1.785	1.302	6.435	-0.015	-0.064	0.012	75.000	14.560	15.535	16.900	10.855	4.914	5.232	5.138	25.249	0.185	0.145	-0.029	75.000	16.770	17.095	26.975	14.820	5.702	10.456	10.240	58.390	-0.184	-0.063	0.092	75.000	23.010	18.915	30.550	17.615	11.452	7.651	7.591	86.934	0.060	NaN	-0.064	75.000	21.125	21.385	25.350	21.905	9.752	4.257	4.244	41.384	0.076	NaN	-0.072	75.000	7.995	20.930	6.175	22.165	3.875	2.199	2.156	8.353	0.088	NaN	-0.090	75.000	10.270	23.335	9.555	24.635	4.111	1.484	1.459	6.000	0.018	-0.057	-0.088	75.000	21.515	24.245	25.415	25.610	11.047	4.132	4.105	45.351	-0.117	NaN	0.123	75.000	12.935	24.960	15.145	28.210	5.691	3.930	3.685	20.973	0.200	NaN	-0.234	NaN	NaN	NaN	NaN	NaN	NaN	NaN	NaN	NaN	NaN	NaN	NaN	NaN	NaN	NaN	NaN	NaN	NaN	NaN	NaN	NaN	NaN	NaN	NaN
76	75.000	76.000	8.970	15.340	9.230	13.455	4.796	1.903	1.443	6.921	0.141	0.064	-0.056	76.000	14.430	15.665	16.965	10.855	4.680	5.437	5.357	25.071	0.219	0.030	-0.176	76.000	17.875	16.380	26.845	14.820	6.978	9.105	8.773	61.220	-1.466	-0.128	1.211	76.000	23.010	18.915	30.485	17.615	11.449	7.587	7.521	86.106	-0.070	-0.064	NaN	76.000	20.930	21.385	25.415	21.905	9.574	4.515	4.494	43.027	0.250	0.065	-0.194	76.000	8.060	20.800	6.175	22.100	3.790	2.290	2.236	8.475	0.081	-0.037	-0.127	76.000	10.270	23.335	9.620	24.635	4.173	1.453	1.438	6.000	-0.022	-0.029	NaN	76.000	21.775	24.375	25.415	25.610	11.366	3.844	3.812	43.327	-0.293	NaN	0.288	76.000	12.805	24.700	15.145	28.210	5.471	4.218	3.948	21.598	0.262	NaN	-0.288	NaN	NaN	NaN	NaN	NaN	NaN	NaN	NaN	NaN	NaN	NaN	NaN	NaN	NaN	NaN	NaN	NaN	NaN	NaN	NaN	NaN	NaN	NaN	NaN
77	76.000	77.000	8.905	15.405	9.230	13.455	4.617	1.977	1.405	6.485	-0.038	NaN	-0.075	77.000	14.235	15.795	16.900	10.855	4.304	5.613	5.529	23.799	0.173	-0.031	-0.207	77.000	17.485	16.510	26.845	14.820	6.488	9.511	9.228	59.868	0.455	NaN	-0.407	77.000	23.010	18.915	30.550	17.615	11.443	7.651	7.568	86.596	0.047	0.064	NaN	77.000	20.670	21.320	25.155	21.905	9.349	4.523	4.500	42.068	0.006	-0.258	-0.266	77.000	7.995	20.800	6.175	22.165	3.927	2.275	2.222	8.725	-0.014	0.039	0.052	77.000	10.270	23.335	9.555	24.635	4.358	1.484	1.454	6.338	0.016	0.031	NaN	77.000	21.905	24.505	25.480	25.610	11.628	3.742	3.684	42.837	-0.128	0.062	0.163	77.000	12.740	24.700	15.145	28.210	5.648	4.255	3.932	22.207	-0.016	NaN	-0.037	NaN	NaN	NaN	NaN	NaN	NaN	NaN	NaN	NaN	NaN	NaN	NaN	NaN	NaN	NaN	NaN	NaN	NaN	NaN	NaN	NaN	NaN	NaN	NaN
78	77.000	78.000	8.840	15.405	9.230	13.455	4.580	1.989	1.384	6.338	-0.021	NaN	-0.013	78.000	14.040	15.990	16.900	10.855	4.111	5.878	5.786	23.791	0.257	NaN	-0.265	78.000	17.355	16.575	26.780	14.820	6.461	9.587	9.334	60.312	0.106	-0.064	-0.140	78.000	22.750	18.915	30.550	17.615	11.313	7.908	7.828	88.556	0.260	NaN	-0.256	78.000	20.735	21.320	24.895	21.840	9.539	4.192	4.170	39.783	-0.329	-0.266	0.064	78.000	7.800	21.060	6.175	22.165	4.099	1.965	1.951	7.998	-0.271	NaN	0.307	78.000	10.270	23.335	9.620	24.570	4.321	1.396	1.365	5.898	-0.089	-0.088	NaN	78.000	22.165	24.570	25.480	25.610	12.005	3.474	3.429	41.164	-0.255	NaN	0.268	78.000	12.740	24.570	15.145	28.210	5.549	4.363	4.102	22.764	0.170	NaN	-0.108	NaN	NaN	NaN	NaN	NaN	NaN	NaN	NaN	NaN	NaN	NaN	NaN	NaN	NaN	NaN	NaN	NaN	NaN	NaN	NaN	NaN	NaN	NaN	NaN
79	78.000	79.000	8.775	15.340	9.230	13.455	4.761	1.939	1.283	6.109	-0.101	NaN	0.048	79.000	13.910	16.250	16.900	10.920	3.837	6.111	6.027	23.128	0.241	-0.057	-0.290	79.000	17.160	16.575	26.780	14.820	6.251	9.779	9.450	59.078	0.116	NaN	-0.192	79.000	22.945	18.915	30.550	17.615	11.445	7.715	7.639	87.424	-0.189	NaN	0.192	79.000	21.190	21.320	24.765	21.840	9.906	3.613	3.604	35.705	-0.566	-0.129	0.450	79.000	7.735	21.060	6.240	22.100	4.186	1.821	1.798	7.529	-0.153	-0.090	0.053	79.000	10.270	23.335	9.555	24.570	4.277	1.427	1.389	5.940	0.024	0.033	NaN	79.000	22.490	24.700	25.415	25.545	12.267	3.045	2.995	36.745	-0.433	-0.080	0.348	79.000	12.740	24.505	15.145	28.210	5.408	4.417	4.156	22.477	0.054	NaN	-0.055	NaN	NaN	NaN	NaN	NaN	NaN	NaN	NaN	NaN	NaN	NaN	NaN	NaN	NaN	NaN	NaN	NaN	NaN	NaN	NaN	NaN	NaN	NaN	NaN
80	79.000	80.000	8.840	15.275	9.295	13.520	4.796	1.813	1.228	5.890	-0.055	-0.047	0.079	80.000	13.845	16.185	16.900	10.920	3.939	6.087	6.035	23.774	0.008	NaN	0.024	80.000	16.705	16.705	26.780	14.820	5.872	10.250	9.868	57.946	0.418	NaN	-0.471	80.000	22.750	18.980	30.550	17.615	11.315	7.919	7.836	88.662	0.197	NaN	-0.203	80.000	20.735	21.320	24.765	21.840	9.511	4.063	4.049	38.507	0.444	NaN	-0.451	80.000	7.670	21.060	6.175	22.165	4.158	1.859	1.822	7.575	0.023	0.091	0.052	80.000	10.335	23.270	9.555	24.635	4.116	1.572	1.524	6.274	0.135	0.056	-0.089	80.000	22.490	24.635	25.415	25.610	12.268	3.083	3.058	37.518	0.063	0.021	-0.021	80.000	12.675	24.375	15.145	28.210	5.218	4.562	4.311	22.494	0.154	NaN	-0.144	NaN	NaN	NaN	NaN	NaN	NaN	NaN	NaN	NaN	NaN	NaN	NaN	NaN	NaN	NaN	NaN	NaN	NaN	NaN	NaN	NaN	NaN	NaN	NaN
81	80.000	81.000	8.775	15.275	9.230	13.520	4.796	1.813	1.228	5.890	NaN	-0.016	-0.016	81.000	13.845	16.315	16.965	10.855	3.878	6.289	6.197	24.032	0.161	0.089	-0.113	81.000	16.380	16.900	26.780	14.820	5.553	10.606	10.275	57.054	0.407	NaN	-0.357	81.000	22.490	18.980	30.615	17.615	11.120	8.239	8.161	90.753	0.325	0.064	-0.256	81.000	20.475	21.255	24.765	21.840	9.307	4.330	4.317	40.180	0.269	NaN	-0.266	81.000	7.865	20.930	6.175	22.165	3.868	2.093	2.052	7.939	0.231	NaN	-0.234	81.000	10.400	23.140	9.555	24.635	3.957	1.717	1.657	6.557	0.133	NaN	-0.145	81.000	22.230	24.505	25.480	25.610	12.036	3.433	3.408	41.025	0.350	0.062	-0.288	81.000	12.870	24.505	15.145	28.210	5.411	4.348	4.189	22.667	-0.121	NaN	0.213	NaN	NaN	NaN	NaN	NaN	NaN	NaN	NaN	NaN	NaN	NaN	NaN	NaN	NaN	NaN	NaN	NaN	NaN	NaN	NaN	NaN	NaN	NaN	NaN
82	81.000	82.000	8.840	15.275	9.230	13.520	4.868	1.798	1.234	6.008	0.006	NaN	0.014	82.000	13.975	16.250	17.030	10.660	3.888	6.370	6.282	24.425	0.085	0.202	0.119	82.000	16.510	16.705	26.715	14.755	5.582	10.390	9.939	55.483	-0.336	-0.052	0.164	82.000	22.945	18.915	30.615	17.420	11.382	7.814	7.717	87.829	-0.445	0.037	0.459	82.000	20.800	21.320	24.765	21.840	9.447	3.999	3.985	37.645	-0.333	NaN	0.331	82.000	7.735	20.995	6.240	22.165	4.191	1.898	1.840	7.711	-0.213	-0.051	0.142	82.000	10.530	23.010	9.555	24.635	3.848	1.895	1.828	7.035	0.171	NaN	-0.178	82.000	22.100	24.505	25.415	25.545	11.744	3.474	3.433	40.315	0.024	-0.081	-0.124	82.000	12.935	24.375	15.145	28.210	5.251	4.426	4.278	22.460	0.088	NaN	-0.080	NaN	NaN	NaN	NaN	NaN	NaN	NaN	NaN	NaN	NaN	NaN	NaN	NaN	NaN	NaN	NaN	NaN	NaN	NaN	NaN	NaN	NaN	NaN	NaN
83	82.000	83.000	8.775	15.340	9.230	13.455	4.582	1.939	1.366	6.257	0.131	0.063	-0.078	83.000	14.235	16.055	17.095	10.465	4.413	6.279	6.014	26.541	-0.268	0.203	0.292	83.000	16.770	16.575	26.715	14.755	6.193	10.110	9.760	60.443	-0.179	NaN	0.279	83.000	22.295	19.045	30.745	17.290	11.117	8.630	8.479	94.264	0.763	0.154	-0.663	83.000	21.190	21.320	24.765	21.840	10.224	3.613	3.606	36.867	-0.379	NaN	0.386	83.000	7.995	20.800	6.240	22.100	3.547	2.184	2.148	7.618	0.308	-0.039	-0.325	83.000	10.595	23.010	9.555	24.635	3.815	1.929	1.765	6.735	-0.063	NaN	-0.035	83.000	21.775	24.440	25.350	25.545	11.802	3.742	3.696	43.623	0.263	-0.062	-0.330	83.000	12.935	24.180	15.145	28.210	5.242	4.596	4.537	23.787	0.260	NaN	-0.171	NaN	NaN	NaN	NaN	NaN	NaN	NaN	NaN	NaN	NaN	NaN	NaN	NaN	NaN	NaN	NaN	NaN	NaN	NaN	NaN	NaN	NaN	NaN	NaN
84	83.000	84.000	8.710	15.340	9.230	13.455	4.784	1.955	1.200	5.742	-0.165	NaN	-0.017	84.000	14.365	15.925	17.160	10.400	4.287	6.192	6.011	25.768	-0.003	0.087	0.175	84.000	16.835	16.575	26.585	14.885	5.872	9.895	9.490	55.728	-0.270	-0.150	0.064	84.000	22.945	18.915	30.810	17.225	11.378	8.045	7.902	89.904	-0.578	0.077	0.663	84.000	21.125	21.320	24.765	21.840	9.793	3.677	3.666	35.896	0.059	NaN	-0.064	84.000	7.930	20.865	6.240	22.165	4.013	2.132	2.080	8.349	-0.068	0.040	0.091	84.000	10.595	23.010	9.555	24.635	3.957	1.929	1.831	7.246	0.066	NaN	NaN	84.000	21.645	24.375	25.350	25.545	11.338	3.885	3.829	43.412	0.133	NaN	-0.144	84.000	12.870	23.985	15.145	28.210	4.983	4.799	4.672	23.280	0.135	NaN	-0.203	NaN	NaN	NaN	NaN	NaN	NaN	NaN	NaN	NaN	NaN	NaN	NaN	NaN	NaN	NaN	NaN	NaN	NaN	NaN	NaN	NaN	NaN	NaN	NaN
85	84.000	85.000	8.710	15.340	9.295	13.455	4.745	1.974	1.179	5.594	-0.021	0.019	NaN	85.000	14.170	16.120	17.095	10.465	4.054	6.367	6.184	25.071	0.173	-0.088	-0.263	85.000	16.835	16.640	26.585	14.820	5.902	9.918	9.587	56.581	0.096	0.012	-0.012	85.000	22.880	18.915	30.745	17.355	11.378	8.018	7.899	89.870	-0.003	-0.089	-0.064	85.000	21.125	21.255	24.765	21.840	9.842	3.687	3.681	36.234	0.016	NaN	-0.010	85.000	7.670	21.060	6.240	22.100	4.273	1.768	1.742	7.444	-0.338	-0.038	0.325	85.000	10.595	23.010	9.555	24.635	3.941	1.929	1.821	7.178	-0.010	NaN	NaN	85.000	21.450	24.180	25.415	25.545	11.133	4.193	4.155	46.264	0.326	0.061	-0.248	85.000	12.935	24.180	15.210	28.210	5.205	4.628	4.500	23.423	-0.172	0.032	0.202	NaN	NaN	NaN	NaN	NaN	NaN	NaN	NaN	NaN	NaN	NaN	NaN	NaN	NaN	NaN	NaN	NaN	NaN	NaN	NaN	NaN	NaN	NaN	NaN
86	85.000	86.000	8.775	15.275	9.295	13.520	4.363	1.830	1.295	5.649	0.116	-0.062	0.081	86.000	14.235	15.990	17.095	10.465	4.600	6.221	5.849	26.905	-0.335	NaN	0.145	86.000	16.575	16.640	26.585	14.820	6.231	10.174	9.911	61.753	0.325	NaN	-0.256	86.000	21.580	18.850	30.680	17.355	10.728	9.222	9.134	97.986	1.235	-0.064	-1.272	86.000	21.125	21.385	24.830	21.840	10.519	3.733	3.716	39.085	0.034	0.065	0.016	86.000	7.930	20.995	6.175	22.100	3.480	2.074	2.074	7.216	0.332	0.055	-0.255	86.000	10.335	23.140	9.555	24.570	4.063	1.629	1.518	6.169	-0.303	-0.057	0.239	86.000	21.125	24.115	25.415	25.545	11.425	4.522	4.483	51.215	0.327	NaN	-0.329	86.000	12.935	24.245	15.145	28.210	5.540	4.539	4.505	24.957	0.005	-0.032	0.057	NaN	NaN	NaN	NaN	NaN	NaN	NaN	NaN	NaN	NaN	NaN	NaN	NaN	NaN	NaN	NaN	NaN	NaN	NaN	NaN	NaN	NaN	NaN	NaN
87	86.000	87.000	8.710	15.275	9.230	13.520	4.306	1.830	1.285	5.535	-0.009	-0.018	-0.018	87.000	14.235	15.990	17.030	10.595	4.604	6.076	5.671	26.111	-0.178	-0.145	NaN	87.000	16.575	16.575	26.585	14.885	6.290	10.152	9.870	62.082	-0.042	-0.011	0.011	87.000	21.385	18.850	30.680	17.420	10.597	9.404	9.320	98.759	0.186	-0.010	-0.193	87.000	21.190	21.385	24.830	21.840	10.660	3.668	3.651	38.921	-0.065	NaN	0.064	87.000	7.735	21.125	6.175	22.165	3.696	1.875	1.875	6.929	-0.199	0.036	0.234	87.000	10.335	23.205	9.555	24.635	4.185	1.629	1.506	6.304	-0.012	0.057	0.057	87.000	21.125	24.050	25.415	25.545	11.483	4.543	4.513	51.820	0.030	NaN	-0.021	87.000	13.000	24.505	15.145	28.210	5.890	4.281	4.239	24.970	-0.266	NaN	0.258	NaN	NaN	NaN	NaN	NaN	NaN	NaN	NaN	NaN	NaN	NaN	NaN	NaN	NaN	NaN	NaN	NaN	NaN	NaN	NaN	NaN	NaN	NaN	NaN
88	87.000	88.000	8.710	15.210	9.230	13.520	4.360	1.768	1.279	5.577	-0.006	NaN	0.062	88.000	14.235	16.055	17.095	10.595	4.703	6.164	5.721	26.905	0.051	0.030	-0.058	88.000	16.640	16.510	26.585	14.885	6.521	10.077	9.768	63.696	-0.101	NaN	0.075	88.000	21.060	18.850	30.680	17.420	10.403	9.726	9.653	100.420	0.333	NaN	-0.321	88.000	21.190	21.385	24.765	21.840	10.773	3.604	3.590	38.680	-0.061	-0.064	NaN	88.000	7.930	21.060	6.175	22.165	3.355	2.074	2.070	6.946	0.196	NaN	-0.200	88.000	10.400	23.205	9.620	24.635	4.103	1.629	1.477	6.059	-0.030	-0.031	-0.031	88.000	20.995	23.920	25.415	25.545	11.399	4.709	4.693	53.497	0.180	NaN	-0.167	88.000	13.000	24.245	15.145	28.210	5.643	4.508	4.498	25.380	0.258	NaN	-0.229	NaN	NaN	NaN	NaN	NaN	NaN	NaN	NaN	NaN	NaN	NaN	NaN	NaN	NaN	NaN	NaN	NaN	NaN	NaN	NaN	NaN	NaN	NaN	NaN
89	88.000	89.000	8.710	15.275	9.295	13.520	4.273	1.850	1.317	5.628	0.038	0.021	-0.062	89.000	14.300	15.925	17.095	10.595	4.886	6.018	5.594	27.332	-0.127	NaN	0.145	89.000	16.575	16.575	26.520	14.820	6.495	10.099	9.841	63.920	0.073	-0.053	-0.075	89.000	20.800	18.785	30.680	17.355	10.210	9.983	9.921	101.290	0.268	0.009	-0.248	89.000	21.125	21.385	24.765	21.840	10.773	3.668	3.654	39.364	0.064	NaN	-0.064	89.000	7.865	20.995	6.175	22.165	3.318	2.055	2.055	6.819	-0.015	NaN	0.016	89.000	10.270	23.335	9.555	24.570	4.237	1.427	1.286	5.450	-0.190	-0.024	0.178	89.000	20.930	23.920	25.480	25.545	11.399	4.831	4.811	54.841	0.118	0.061	-0.061	89.000	13.065	24.310	15.145	28.145	5.757	4.363	4.357	25.080	-0.141	-0.057	0.088	NaN	NaN	NaN	NaN	NaN	NaN	NaN	NaN	NaN	NaN	NaN	NaN	NaN	NaN	NaN	NaN	NaN	NaN	NaN	NaN	NaN	NaN	NaN	NaN
90	89.000	90.000	8.840	15.210	9.295	13.520	4.273	1.750	1.316	5.623	-9.887E-4	NaN	0.097	90.000	14.365	15.860	17.030	10.660	4.837	5.843	5.430	26.263	-0.164	-0.087	0.087	90.000	16.510	16.575	26.585	14.820	6.290	10.227	9.955	62.619	0.114	0.064	-0.064	90.000	20.995	18.720	30.680	17.420	10.275	9.772	9.721	99.887	-0.199	-0.009	0.202	90.000	21.320	21.385	24.765	21.840	10.850	3.475	3.462	37.564	-0.192	NaN	0.193	90.000	7.735	21.060	6.240	22.100	3.606	1.821	1.821	6.566	-0.235	-0.090	0.144	90.000	10.270	23.335	9.620	24.635	4.314	1.453	1.361	5.873	0.075	0.029	NaN	90.000	20.735	23.790	25.545	25.610	11.078	5.143	5.126	56.784	0.315	0.084	-0.228	90.000	13.130	24.440	15.145	28.145	5.907	4.217	4.204	24.835	-0.152	NaN	0.145	NaN	NaN	NaN	NaN	NaN	NaN	NaN	NaN	NaN	NaN	NaN	NaN	NaN	NaN	NaN	NaN	NaN	NaN	NaN	NaN	NaN	NaN	NaN	NaN
91	90.000	91.000	8.840	15.210	9.230	13.585	4.422	1.671	1.320	5.839	0.004	-0.078	NaN	91.000	14.300	15.925	17.030	10.725	4.923	5.873	5.520	27.175	0.090	-0.058	-0.088	91.000	16.510	16.510	26.585	14.885	6.456	10.205	9.817	63.375	-0.138	-0.010	0.010	91.000	20.670	18.720	30.680	17.420	10.023	10.094	10.064	100.876	0.343	NaN	-0.322	91.000	21.255	21.385	24.765	21.840	10.810	3.539	3.530	38.164	0.068	NaN	-0.064	91.000	7.605	21.125	6.240	22.165	3.590	1.716	1.708	6.130	-0.113	0.039	0.143	91.000	10.335	23.205	9.620	24.635	3.978	1.599	1.484	5.902	0.122	NaN	-0.145	91.000	20.540	23.725	25.610	25.610	10.850	5.409	5.396	58.546	0.270	0.061	-0.205	91.000	13.455	24.895	15.145	28.210	6.308	3.721	3.721	23.470	-0.484	0.058	0.553	NaN	NaN	NaN	NaN	NaN	NaN	NaN	NaN	NaN	NaN	NaN	NaN	NaN	NaN	NaN	NaN	NaN	NaN	NaN	NaN	NaN	NaN	NaN	NaN
92	91.000	92.000	8.840	15.080	9.295	13.650	5.016	1.501	0.987	4.952	-0.333	-0.042	0.124	92.000	14.170	15.925	17.030	10.660	4.396	5.992	5.903	25.946	0.383	0.057	-0.062	92.000	16.445	16.575	26.585	14.820	5.733	10.291	9.709	55.656	-0.108	0.011	-0.075	92.000	22.685	18.915	30.680	17.485	11.254	8.122	8.046	90.554	-2.018	-0.011	1.949	92.000	21.385	21.385	24.765	21.840	10.147	3.410	3.403	34.531	-0.127	NaN	0.129	92.000	7.475	21.190	6.240	22.100	4.363	1.534	1.502	6.553	-0.206	-0.039	0.143	92.000	10.205	23.400	9.620	24.635	4.215	1.367	1.352	5.700	-0.131	NaN	0.232	92.000	20.475	23.660	25.740	25.675	10.002	5.637	5.620	56.214	0.225	0.145	-0.084	92.000	13.455	25.155	15.145	28.145	6.126	3.435	3.380	20.703	-0.341	-0.057	0.226	NaN	NaN	NaN	NaN	NaN	NaN	NaN	NaN	NaN	NaN	NaN	NaN	NaN	NaN	NaN	NaN	NaN	NaN	NaN	NaN	NaN	NaN	NaN	NaN
93	92.000	93.000	8.775	15.210	9.295	13.585	5.050	1.706	1.106	5.585	0.119	0.062	-0.144	93.000	14.105	15.990	17.030	10.660	4.407	6.080	6.014	26.503	0.111	NaN	-0.088	93.000	16.380	16.640	26.585	14.885	5.708	10.355	9.711	55.432	0.002	-0.011	-0.075	93.000	22.815	18.915	30.615	17.550	11.390	7.919	7.860	89.524	-0.186	-0.075	0.128	93.000	21.385	21.385	24.765	21.840	10.122	3.410	3.406	34.472	0.003	NaN	NaN	93.000	7.475	21.190	6.240	22.100	4.310	1.534	1.493	6.435	-0.009	NaN	NaN	93.000	10.270	23.335	9.620	24.635	4.010	1.453	1.433	5.746	0.081	NaN	-0.087	93.000	20.410	23.595	25.740	25.610	9.861	5.698	5.685	56.062	0.065	-0.023	-0.084	93.000	13.455	25.285	15.145	28.210	6.126	3.378	3.318	20.326	-0.061	0.056	0.113	NaN	NaN	NaN	NaN	NaN	NaN	NaN	NaN	NaN	NaN	NaN	NaN	NaN	NaN	NaN	NaN	NaN	NaN	NaN	NaN	NaN	NaN	NaN	NaN
94	93.000	94.000	8.840	15.145	9.230	13.585	4.831	1.608	1.270	6.135	0.164	-0.016	0.079	94.000	14.105	15.990	17.030	10.725	4.875	6.023	5.849	28.519	-0.164	-0.057	NaN	94.000	16.510	16.510	26.585	14.820	6.485	10.216	9.683	62.792	-0.028	0.011	0.150	94.000	21.450	18.785	30.550	17.550	10.688	9.183	9.166	97.969	1.306	-0.064	-1.335	94.000	21.320	21.385	24.765	21.840	10.686	3.475	3.472	37.104	0.067	NaN	-0.064	94.000	7.345	21.190	6.240	22.100	3.809	1.431	1.388	5.285	-0.105	NaN	0.100	94.000	10.335	23.205	9.555	24.570	3.668	1.572	1.451	5.324	0.018	-0.024	-0.145	94.000	20.540	23.595	25.870	25.675	10.550	5.721	5.720	60.350	0.035	0.145	0.121	94.000	13.520	25.350	15.145	28.145	6.397	3.233	3.221	20.605	-0.097	-0.056	0.089	NaN	NaN	NaN	NaN	NaN	NaN	NaN	NaN	NaN	NaN	NaN	NaN	NaN	NaN	NaN	NaN	NaN	NaN	NaN	NaN	NaN	NaN	NaN	NaN
95	94.000	95.000	8.840	15.145	9.295	13.520	4.891	1.687	1.309	6.401	0.039	0.080	NaN	95.000	14.170	15.990	16.965	10.855	4.967	5.846	5.665	28.139	-0.185	-0.145	0.031	95.000	16.770	16.445	26.520	14.885	6.775	9.874	9.339	63.274	-0.344	-0.074	0.267	95.000	21.060	18.785	30.550	17.550	10.305	9.570	9.559	98.506	0.393	NaN	-0.387	95.000	21.385	21.385	24.765	21.840	10.739	3.410	3.409	36.610	-0.063	NaN	0.064	95.000	7.280	21.255	6.240	22.100	3.868	1.340	1.299	5.024	-0.089	NaN	0.091	95.000	10.335	23.205	9.620	24.570	3.604	1.541	1.444	5.205	-0.007	-0.030	NaN	95.000	20.540	23.595	25.805	25.675	10.525	5.661	5.661	59.581	-0.060	-0.060	NaN	95.000	13.585	25.545	15.145	28.145	6.542	3.032	3.017	19.739	-0.204	NaN	0.201	NaN	NaN	NaN	NaN	NaN	NaN	NaN	NaN	NaN	NaN	NaN	NaN	NaN	NaN	NaN	NaN	NaN	NaN	NaN	NaN	NaN	NaN	NaN	NaN
96	95.000	96.000	8.775	15.145	9.295	13.585	5.045	1.644	1.253	6.321	-0.056	-0.062	-0.021	96.000	13.975	15.990	16.900	11.050	5.069	5.741	5.650	28.641	-0.015	-0.201	-0.099	96.000	16.835	16.510	26.585	14.885	7.009	9.884	9.359	65.593	0.020	0.064	0.053	96.000	21.060	18.850	30.550	17.550	10.446	9.579	9.570	99.964	0.011	NaN	-0.009	96.000	21.125	21.320	24.765	21.840	10.571	3.677	3.677	38.870	0.268	NaN	-0.267	96.000	7.150	21.320	6.175	22.100	3.815	1.249	1.203	4.588	-0.096	0.051	0.142	96.000	10.400	23.140	9.620	24.635	3.325	1.686	1.551	5.159	0.107	0.058	-0.088	96.000	20.475	23.595	25.935	25.675	10.514	5.843	5.843	61.432	0.182	0.121	-0.061	96.000	13.650	25.805	15.145	28.145	6.686	2.777	2.762	18.463	-0.256	NaN	0.254	NaN	NaN	NaN	NaN	NaN	NaN	NaN	NaN	NaN	NaN	NaN	NaN	NaN	NaN	NaN	NaN	NaN	NaN	NaN	NaN	NaN	NaN	NaN	NaN
97	96.000	97.000	8.905	15.080	9.295	13.520	5.037	1.608	1.339	6.743	0.086	0.063	0.095	97.000	13.845	16.120	16.835	11.245	4.928	5.719	5.637	27.779	-0.014	-0.200	-0.179	97.000	17.225	16.575	26.585	14.820	7.384	9.523	9.177	67.761	-0.182	0.012	0.371	97.000	21.060	18.850	30.550	17.615	10.510	9.570	9.564	100.517	-0.006	-0.008	NaN	97.000	20.930	21.255	24.700	21.775	10.433	3.806	3.806	39.707	0.129	-0.073	-0.202	97.000	7.215	21.190	6.240	22.100	3.645	1.334	1.245	4.538	0.042	-0.048	-0.136	97.000	10.400	23.205	9.620	24.570	3.386	1.572	1.408	4.766	-0.144	-0.056	0.056	97.000	20.345	23.465	26.000	25.675	10.407	6.072	6.071	63.181	0.228	0.061	-0.168	97.000	13.650	25.675	15.210	28.210	6.600	2.977	2.969	19.596	0.208	0.089	-0.111	NaN	NaN	NaN	NaN	NaN	NaN	NaN	NaN	NaN	NaN	NaN	NaN	NaN	NaN	NaN	NaN	NaN	NaN	NaN	NaN	NaN	NaN	NaN	NaN
98	97.000	98.000	8.905	15.145	9.230	13.585	4.831	1.593	1.360	6.570	0.021	-0.077	-0.064	98.000	13.910	16.055	16.640	11.440	4.967	5.362	5.239	26.026	-0.397	-0.267	0.089	98.000	17.225	16.575	26.585	14.820	7.386	9.523	9.225	68.141	0.048	NaN	NaN	98.000	20.995	18.850	30.550	17.615	10.499	9.634	9.623	101.037	0.060	NaN	-0.064	98.000	20.930	21.255	24.765	21.840	10.516	3.879	3.879	40.797	0.074	0.074	NaN	98.000	7.280	21.190	6.240	22.100	3.577	1.382	1.325	4.740	0.080	NaN	-0.049	98.000	10.400	23.205	9.620	24.570	3.512	1.572	1.393	4.893	-0.015	NaN	NaN	98.000	20.150	23.400	26.260	25.805	10.309	6.566	6.566	67.689	0.495	0.290	-0.205	98.000	13.585	25.545	15.210	28.210	6.600	3.121	3.114	20.555	0.145	NaN	-0.145	NaN	NaN	NaN	NaN	NaN	NaN	NaN	NaN	NaN	NaN	NaN	NaN	NaN	NaN	NaN	NaN	NaN	NaN	NaN	NaN	NaN	NaN	NaN	NaN
99	98.000	99.000	8.840	15.015	9.295	13.585	4.998	1.501	1.179	5.894	-0.181	0.020	0.104	99.000	13.845	16.055	16.640	11.505	4.880	5.340	5.256	25.646	0.016	-0.055	-0.034	99.000	17.485	16.510	26.585	14.820	7.591	9.256	8.969	68.082	-0.256	NaN	0.267	99.000	21.125	18.850	30.550	17.550	10.564	9.514	9.499	100.344	-0.125	0.009	0.129	99.000	20.995	21.255	24.830	21.840	10.516	3.879	3.879	40.797	NaN	0.064	0.064	99.000	7.475	21.190	6.175	22.100	3.460	1.587	1.566	5.416	0.240	0.053	-0.160	99.000	10.595	23.010	9.620	24.570	3.315	1.840	1.560	5.171	0.167	NaN	-0.269	99.000	20.150	23.400	26.390	25.805	10.248	6.687	6.687	68.534	0.121	0.121	NaN	99.000	13.585	25.610	15.145	28.210	6.628	3.032	3.024	20.043	-0.090	-0.033	0.056	NaN	NaN	NaN	NaN	NaN	NaN	NaN	NaN	NaN	NaN	NaN	NaN	NaN	NaN	NaN	NaN	NaN	NaN	NaN	NaN	NaN	NaN	NaN	NaN
100	99.000	100.000	8.905	15.145	9.295	13.585	4.998	1.608	1.324	6.616	0.145	NaN	-0.110	100.000	13.845	16.120	16.640	11.505	4.886	5.395	5.322	26.001	0.066	NaN	-0.056	100.000	17.550	16.575	26.520	14.885	7.618	9.128	8.834	67.296	-0.136	-0.076	0.052	100.000	21.190	18.915	30.615	17.485	10.569	9.533	9.513	100.547	0.014	0.074	0.055	100.000	20.670	21.190	24.960	21.840	10.103	4.339	4.338	43.830	0.459	0.129	-0.331	100.000	7.605	21.125	6.240	22.100	3.320	1.677	1.638	5.438	0.072	-0.053	-0.144	100.000	10.335	23.270	9.620	24.570	3.460	1.484	1.361	4.711	-0.199	NaN	0.353	100.000	20.280	23.465	26.585	25.870	10.286	6.748	6.748	69.408	0.061	0.205	0.145	100.000	13.585	25.805	15.145	28.210	6.657	2.867	2.846	18.945	-0.178	NaN	0.164	NaN	NaN	NaN	NaN	NaN	NaN	NaN	NaN	NaN	NaN	NaN	NaN	NaN	NaN	NaN	NaN	NaN	NaN	NaN	NaN	NaN	NaN	NaN	NaN
101	100.000	101.000	8.905	15.080	9.230	13.520	4.937	1.593	1.343	6.629	0.019	0.050	0.064	101.000	13.780	16.250	16.640	11.505	4.648	5.540	5.437	25.270	0.115	NaN	-0.145	101.000	17.615	16.575	26.520	14.820	7.623	9.076	8.843	67.410	0.010	0.013	0.064	101.000	21.190	18.850	30.680	17.420	10.564	9.597	9.574	101.138	0.061	0.074	0.010	101.000	20.995	21.255	24.960	21.840	10.452	4.008	4.008	41.891	-0.331	NaN	0.331	101.000	7.865	20.995	6.240	22.100	3.083	1.965	1.939	5.978	0.302	NaN	-0.288	101.000	10.530	23.075	9.620	24.570	3.382	1.750	1.529	5.171	0.167	NaN	-0.268	101.000	20.280	23.465	26.780	25.870	10.332	6.931	6.929	71.597	0.181	0.183	NaN	101.000	13.520	25.610	15.145	28.210	6.570	3.066	3.048	20.027	0.202	NaN	-0.200	NaN	NaN	NaN	NaN	NaN	NaN	NaN	NaN	NaN	NaN	NaN	NaN	NaN	NaN	NaN	NaN	NaN	NaN	NaN	NaN	NaN	NaN	NaN	NaN
102	101.000	102.000	8.905	14.950	9.295	13.585	4.961	1.420	1.127	5.590	-0.216	-0.045	0.125	102.000	13.845	16.250	16.640	11.505	4.552	5.507	5.371	24.450	-0.066	NaN	0.033	102.000	17.745	16.445	26.520	14.885	7.682	8.913	8.652	66.468	-0.191	-0.011	0.151	102.000	21.320	18.850	30.745	17.355	10.619	9.543	9.504	100.927	-0.070	0.074	0.128	102.000	20.995	21.255	24.895	21.840	10.408	3.944	3.943	41.042	-0.065	-0.064	NaN	102.000	7.865	20.930	6.240	22.100	3.169	2.002	1.970	6.245	0.031	NaN	-0.038	102.000	10.400	23.140	9.620	24.570	3.590	1.629	1.495	5.366	-0.034	NaN	0.119	102.000	19.890	23.335	26.650	25.610	9.910	7.133	7.117	70.532	0.188	-0.206	-0.411	102.000	13.390	25.545	15.145	28.145	6.547	3.137	3.089	20.225	0.041	-0.054	-0.127	NaN	NaN	NaN	NaN	NaN	NaN	NaN	NaN	NaN	NaN	NaN	NaN	NaN	NaN	NaN	NaN	NaN	NaN	NaN	NaN	NaN	NaN	NaN	NaN
103	102.000	103.000	8.970	14.950	9.295	13.585	4.925	1.403	1.137	5.598	0.010	NaN	0.015	103.000	13.845	16.185	16.640	11.505	4.464	5.451	5.347	23.871	-0.024	NaN	0.056	103.000	17.680	16.510	26.520	14.820	7.451	9.000	8.775	65.386	0.123	0.012	-0.076	103.000	21.515	18.850	30.875	17.290	10.680	9.489	9.438	100.792	-0.067	0.139	0.192	103.000	21.060	21.255	24.830	21.840	10.355	3.815	3.815	39.500	-0.129	-0.064	0.064	103.000	7.865	20.995	6.240	22.165	3.343	2.002	1.977	6.608	0.006	0.038	0.038	103.000	10.335	23.205	9.620	24.570	3.741	1.541	1.451	5.429	-0.044	NaN	0.088	103.000	20.215	23.465	26.780	25.610	10.165	6.907	6.882	69.953	-0.236	0.124	0.349	103.000	13.390	25.415	15.145	28.210	6.435	3.300	3.260	20.981	0.171	0.055	-0.110	NaN	NaN	NaN	NaN	NaN	NaN	NaN	NaN	NaN	NaN	NaN	NaN	NaN	NaN	NaN	NaN	NaN	NaN	NaN	NaN	NaN	NaN	NaN	NaN
104	103.000	104.000	9.035	14.885	9.295	13.520	4.985	1.390	1.165	5.809	0.029	0.064	0.076	104.000	13.910	16.250	16.640	11.505	4.416	5.474	5.340	23.584	-0.007	NaN	-0.024	104.000	17.875	16.445	26.650	14.820	7.596	8.924	8.688	65.995	-0.088	0.128	0.204	104.000	21.645	18.850	30.940	17.290	10.745	9.425	9.372	100.703	-0.065	0.064	0.128	104.000	20.995	21.190	24.830	21.840	10.216	3.890	3.890	39.736	0.075	NaN	-0.075	104.000	7.995	20.800	6.240	22.100	3.201	2.184	2.132	6.823	0.155	-0.039	-0.221	104.000	10.270	23.270	9.555	24.635	3.826	1.541	1.467	5.611	0.016	0.088	0.088	104.000	20.735	23.660	26.845	25.545	10.660	6.394	6.361	67.811	-0.521	0.043	0.554	104.000	13.390	25.285	15.210	28.210	6.290	3.445	3.405	21.417	0.144	0.034	-0.110	NaN	NaN	NaN	NaN	NaN	NaN	NaN	NaN	NaN	NaN	NaN	NaN	NaN	NaN	NaN	NaN	NaN	NaN	NaN	NaN	NaN	NaN	NaN	NaN
105	104.000	105.000	8.970	14.885	9.230	13.585	4.985	1.326	1.105	5.509	-0.060	-0.076	-0.013	105.000	14.040	16.185	16.640	11.505	4.597	5.354	5.176	23.795	-0.164	NaN	0.120	105.000	17.875	16.380	26.650	14.820	7.682	8.913	8.652	66.468	-0.035	NaN	0.011	105.000	21.515	18.850	30.875	17.225	10.680	9.500	9.442	100.834	0.069	-0.053	-0.128	105.000	20.865	21.125	24.765	21.840	10.141	3.965	3.964	40.201	0.074	-0.064	-0.140	105.000	7.995	20.930	6.240	22.100	3.198	2.109	2.093	6.692	-0.039	NaN	0.072	105.000	10.335	23.205	9.620	24.570	3.741	1.541	1.451	5.429	-0.016	-0.088	-0.088	105.000	20.735	23.660	26.975	25.545	10.720	6.518	6.482	69.493	0.121	0.124	NaN	105.000	13.455	25.220	15.210	28.210	6.283	3.467	3.448	21.666	0.043	NaN	-0.023	NaN	NaN	NaN	NaN	NaN	NaN	NaN	NaN	NaN	NaN	NaN	NaN	NaN	NaN	NaN	NaN	NaN	NaN	NaN	NaN	NaN	NaN	NaN	NaN
106	105.000	106.000	8.905	15.015	9.230	13.585	4.865	1.466	1.192	5.801	0.087	NaN	-0.141	106.000	14.040	16.185	16.575	11.505	4.642	5.322	5.117	23.753	-0.060	-0.031	NaN	106.000	17.875	16.315	26.585	14.820	7.768	8.837	8.557	66.472	-0.095	-0.064	0.011	106.000	21.450	18.915	30.745	17.355	10.676	9.425	9.367	99.997	-0.075	-0.150	-0.075	106.000	20.605	21.060	24.830	21.840	9.938	4.296	4.295	42.685	0.331	0.064	-0.267	106.000	7.995	20.930	6.175	22.100	3.140	2.164	2.153	6.760	0.060	0.055	NaN	106.000	10.270	23.270	9.620	24.635	3.806	1.512	1.441	5.484	-0.010	0.059	0.087	106.000	20.670	23.595	27.105	25.545	10.695	6.724	6.691	71.563	0.209	0.124	-0.081	106.000	13.390	25.220	15.145	28.210	6.283	3.467	3.448	21.666	NaN	-0.033	-0.033	NaN	NaN	NaN	NaN	NaN	NaN	NaN	NaN	NaN	NaN	NaN	NaN	NaN	NaN	NaN	NaN	NaN	NaN	NaN	NaN	NaN	NaN	NaN	NaN
107	106.000	107.000	8.905	14.885	9.295	13.520	5.036	1.420	1.095	5.514	-0.097	0.080	0.125	107.000	14.040	16.055	16.640	11.505	4.648	5.240	5.118	23.787	0.001	0.032	0.113	107.000	17.940	16.315	26.585	14.820	7.709	8.773	8.490	65.449	-0.067	NaN	0.064	107.000	21.710	18.850	30.745	17.290	10.810	9.169	9.112	98.502	-0.254	0.011	0.267	107.000	20.800	21.060	24.765	21.775	10.002	4.029	4.028	40.290	-0.267	-0.076	0.192	107.000	7.995	20.930	6.240	22.100	3.256	2.109	2.091	6.806	-0.063	-0.054	NaN	107.000	10.400	23.205	9.620	24.570	3.741	1.572	1.460	5.463	0.019	-0.056	-0.121	107.000	20.410	23.530	27.300	25.545	10.310	7.179	7.129	73.507	0.438	0.187	-0.268	107.000	13.325	25.025	15.145	28.145	6.026	3.612	3.587	21.615	0.139	-0.056	-0.201	NaN	NaN	NaN	NaN	NaN	NaN	NaN	NaN	NaN	NaN	NaN	NaN	NaN	NaN	NaN	NaN	NaN	NaN	NaN	NaN	NaN	NaN	NaN	NaN
108	107.000	108.000	9.035	14.885	9.295	13.520	4.961	1.390	1.174	5.826	0.080	NaN	0.024	108.000	14.040	16.120	16.640	11.570	4.644	5.240	5.095	23.660	-0.023	-0.056	-0.056	108.000	17.940	16.250	26.520	14.885	7.795	8.688	8.368	65.226	-0.123	-0.074	0.010	108.000	21.580	18.785	30.745	17.290	10.749	9.286	9.244	99.364	0.132	NaN	-0.118	108.000	20.930	21.125	24.700	21.840	10.205	3.837	3.836	39.145	-0.192	-0.052	0.140	108.000	7.930	20.995	6.240	22.100	3.285	2.019	2.008	6.595	-0.083	NaN	0.090	108.000	10.335	23.205	9.620	24.570	3.741	1.541	1.451	5.429	-0.009	NaN	0.030	108.000	20.150	23.400	27.365	25.545	10.080	7.527	7.483	75.429	0.354	0.062	-0.286	108.000	13.260	25.025	15.210	28.210	6.026	3.735	3.699	22.287	0.111	0.089	-0.034	NaN	NaN	NaN	NaN	NaN	NaN	NaN	NaN	NaN	NaN	NaN	NaN	NaN	NaN	NaN	NaN	NaN	NaN	NaN	NaN	NaN	NaN	NaN	NaN
109	108.000	109.000	9.035	14.820	9.295	13.520	4.961	1.326	1.114	5.526	-0.060	NaN	0.064	109.000	13.975	16.055	16.640	11.505	4.600	5.273	5.151	23.694	0.056	0.056	0.023	109.000	17.875	16.250	26.585	14.885	7.709	8.816	8.496	65.492	0.128	0.064	-0.064	109.000	21.515	18.915	30.680	17.420	10.673	9.286	9.227	98.476	-0.017	-0.085	-0.085	109.000	21.125	21.190	24.765	21.840	10.419	3.698	3.697	38.524	-0.138	0.064	0.203	109.000	8.125	20.800	6.240	22.100	3.052	2.290	2.267	6.921	0.260	NaN	-0.271	109.000	10.530	23.075	9.620	24.570	3.654	1.750	1.570	5.738	0.119	NaN	-0.212	109.000	19.825	23.270	27.430	25.545	9.755	7.938	7.887	76.941	0.404	0.062	-0.349	109.000	13.260	24.960	15.210	28.145	6.026	3.735	3.699	22.287	-3.553E-15	-0.055	-0.055	NaN	NaN	NaN	NaN	NaN	NaN	NaN	NaN	NaN	NaN	NaN	NaN	NaN	NaN	NaN	NaN	NaN	NaN	NaN	NaN	NaN	NaN	NaN	NaN
110	109.000	110.000	9.100	14.755	9.295	13.520	4.937	1.250	1.085	5.357	-0.029	NaN	0.074	110.000	13.845	16.185	16.640	11.570	4.369	5.395	5.278	23.056	0.127	-0.056	-0.179	110.000	17.810	16.250	26.650	14.820	7.623	8.955	8.651	65.944	0.155	0.075	-0.064	110.000	21.580	19.045	30.745	17.355	10.730	9.320	9.212	98.844	-0.015	0.076	0.040	110.000	21.385	21.255	24.765	21.840	10.697	3.430	3.430	36.694	-0.267	NaN	0.267	110.000	7.930	20.995	6.305	22.100	3.346	1.965	1.957	6.549	-0.310	-0.054	0.271	110.000	10.595	23.010	9.620	24.570	3.649	1.840	1.626	5.932	0.055	NaN	-0.090	110.000	19.630	23.140	27.430	25.610	9.551	8.182	8.142	77.757	0.255	0.020	-0.225	110.000	13.195	24.895	15.210	28.210	6.000	3.879	3.838	23.030	0.140	0.056	-0.089	NaN	NaN	NaN	NaN	NaN	NaN	NaN	NaN	NaN	NaN	NaN	NaN	NaN	NaN	NaN	NaN	NaN	NaN	NaN	NaN	NaN	NaN	NaN	NaN
111	110.000	111.000	9.035	14.755	9.295	13.455	4.865	1.326	1.098	5.340	0.013	0.064	-0.013	111.000	13.780	16.185	16.640	11.570	4.185	5.429	5.324	22.278	0.046	NaN	-0.034	111.000	17.875	16.185	26.585	14.820	7.596	8.816	8.524	64.748	-0.127	-0.064	0.074	111.000	21.710	19.045	30.680	17.420	10.792	9.116	8.998	97.103	-0.214	-0.076	0.128	111.000	21.450	21.255	24.765	21.840	10.721	3.366	3.366	36.086	-0.064	NaN	0.064	111.000	7.995	20.930	6.240	22.100	3.378	2.109	2.105	7.111	0.148	0.054	-0.090	111.000	10.465	23.075	9.620	24.570	3.862	1.717	1.584	6.118	-0.041	NaN	0.121	111.000	19.435	23.205	27.430	25.545	9.393	8.330	8.236	77.356	0.094	-0.018	-0.169	111.000	13.130	24.635	15.210	28.210	5.830	4.136	4.097	23.884	0.258	NaN	-0.257	NaN	NaN	NaN	NaN	NaN	NaN	NaN	NaN	NaN	NaN	NaN	NaN	NaN	NaN	NaN	NaN	NaN	NaN	NaN	NaN	NaN	NaN	NaN	NaN
112	111.000	112.000	9.035	14.690	9.295	13.520	5.152	1.199	0.891	4.588	-0.207	-0.063	0.063	112.000	13.845	16.120	16.640	11.570	3.809	5.340	5.319	20.259	-0.005	NaN	0.089	112.000	17.940	16.185	26.650	14.820	7.037	8.816	8.465	59.564	-0.059	0.064	0.064	112.000	23.010	18.850	30.745	17.420	11.445	7.866	7.772	88.953	-1.225	0.064	1.314	112.000	21.580	21.320	24.765	21.775	10.237	3.217	3.210	32.858	-0.156	-0.009	0.138	112.000	8.060	20.800	6.240	22.100	3.868	2.237	2.198	8.501	0.093	NaN	-0.128	112.000	10.400	23.140	9.620	24.570	4.134	1.629	1.592	6.583	0.008	NaN	0.088	112.000	19.110	23.010	27.430	25.545	8.459	8.698	8.565	72.455	0.330	NaN	-0.368	112.000	13.000	24.505	15.210	28.210	5.518	4.314	4.151	22.908	0.054	NaN	-0.178	NaN	NaN	NaN	NaN	NaN	NaN	NaN	NaN	NaN	NaN	NaN	NaN	NaN	NaN	NaN	NaN	NaN	NaN	NaN	NaN	NaN	NaN	NaN	NaN
113	112.000	113.000	9.035	14.690	9.230	13.520	5.152	1.186	0.923	4.753	0.032	-0.011	NaN	113.000	13.910	16.055	16.640	11.505	3.900	5.306	5.278	20.584	-0.041	0.056	0.089	113.000	17.875	16.250	26.585	14.820	6.950	8.827	8.503	59.099	0.038	-0.064	-0.075	113.000	23.010	18.915	30.745	17.420	11.443	7.878	7.767	88.877	-0.006	NaN	-0.012	113.000	21.580	21.190	24.765	21.840	10.211	3.251	3.251	33.192	0.041	0.013	-0.026	113.000	7.930	20.930	6.240	22.100	4.041	2.055	2.030	8.205	-0.167	NaN	0.181	113.000	10.270	23.400	9.620	24.570	4.420	1.338	1.309	5.788	-0.283	NaN	0.290	113.000	19.110	23.075	27.625	25.415	8.489	8.831	8.638	73.329	0.073	0.154	0.017	113.000	13.065	24.505	15.210	28.210	5.536	4.281	4.147	22.954	-0.005	NaN	0.033	NaN	NaN	NaN	NaN	NaN	NaN	NaN	NaN	NaN	NaN	NaN	NaN	NaN	NaN	NaN	NaN	NaN	NaN	NaN	NaN	NaN	NaN	NaN	NaN
114	113.000	114.000	9.035	14.690	9.295	13.520	5.095	1.199	0.886	4.512	-0.037	0.014	NaN	114.000	13.975	16.055	16.640	11.570	3.888	5.217	5.172	20.111	-0.106	-0.056	0.033	114.000	18.005	16.250	26.650	14.820	7.042	8.762	8.481	59.720	-0.022	0.064	0.128	114.000	23.075	18.850	30.810	17.355	11.508	7.878	7.767	89.380	-1.693E-4	0.076	0.076	114.000	21.645	21.255	24.765	21.840	10.301	3.174	3.173	32.689	-0.077	NaN	0.076	114.000	7.735	20.995	6.240	22.100	4.273	1.859	1.829	7.816	-0.201	NaN	0.195	114.000	10.400	23.205	9.620	24.570	4.259	1.572	1.527	6.502	0.217	NaN	-0.234	114.000	18.850	23.010	27.820	25.350	8.259	9.270	9.012	74.428	0.374	0.172	-0.268	114.000	13.000	24.505	15.145	28.210	5.581	4.281	4.131	23.056	-0.016	-0.033	-0.033	NaN	NaN	NaN	NaN	NaN	NaN	NaN	NaN	NaN	NaN	NaN	NaN	NaN	NaN	NaN	NaN	NaN	NaN	NaN	NaN	NaN	NaN	NaN	NaN
115	114.000	115.000	9.035	14.690	9.230	13.520	5.072	1.186	0.905	4.588	0.019	-0.011	NaN	115.000	14.040	16.055	16.640	11.505	3.837	5.240	5.175	19.858	0.002	0.056	0.032	115.000	18.200	16.250	26.715	14.820	7.135	8.634	8.395	59.898	-0.086	0.064	0.192	115.000	23.140	18.850	30.940	17.225	11.507	7.967	7.826	90.056	0.060	0.154	0.064	115.000	21.515	21.255	24.830	21.775	10.124	3.356	3.349	33.901	0.175	0.054	-0.128	115.000	7.605	21.125	6.240	22.100	4.535	1.677	1.660	7.529	-0.169	NaN	0.181	115.000	10.270	23.400	9.620	24.635	4.564	1.396	1.373	6.266	-0.154	0.058	0.233	115.000	18.720	22.945	27.885	25.350	8.087	9.475	9.189	74.314	0.177	0.063	-0.142	115.000	12.870	24.310	15.210	28.145	5.408	4.493	4.268	23.081	0.137	-0.022	-0.234	NaN	NaN	NaN	NaN	NaN	NaN	NaN	NaN	NaN	NaN	NaN	NaN	NaN	NaN	NaN	NaN	NaN	NaN	NaN	NaN	NaN	NaN	NaN	NaN
116	115.000	116.000	9.035	14.560	9.230	13.520	5.128	1.058	0.798	4.090	-0.107	NaN	0.128	116.000	14.170	15.925	16.640	11.505	3.970	5.063	4.979	19.765	-0.196	NaN	0.177	116.000	18.200	16.250	26.780	14.755	7.110	8.709	8.496	60.409	0.102	0.075	NaN	116.000	23.205	18.850	31.135	17.095	11.571	8.122	7.949	91.978	0.123	0.218	0.063	116.000	21.450	21.255	24.765	21.840	10.075	3.366	3.361	33.868	0.013	-0.053	-0.064	116.000	7.605	21.125	6.240	22.035	4.565	1.641	1.633	7.453	-0.028	-0.036	NaN	116.000	10.270	23.335	9.620	24.635	4.564	1.453	1.435	6.549	0.062	NaN	-0.058	116.000	18.655	22.880	28.015	25.350	8.031	9.680	9.382	75.340	0.193	0.126	-0.079	116.000	12.740	24.115	15.210	28.210	5.253	4.782	4.523	23.757	0.255	0.056	-0.234	NaN	NaN	NaN	NaN	NaN	NaN	NaN	NaN	NaN	NaN	NaN	NaN	NaN	NaN	NaN	NaN	NaN	NaN	NaN	NaN	NaN	NaN	NaN	NaN
117	116.000	117.000	9.100	14.495	9.230	13.520	5.152	0.984	0.785	4.043	-0.013	NaN	0.073	117.000	14.300	15.990	16.640	11.505	4.005	5.059	4.905	19.646	-0.074	NaN	0.003	117.000	18.070	16.315	26.780	14.755	6.965	8.849	8.644	60.206	0.148	NaN	-0.139	117.000	23.140	18.850	31.135	17.030	11.506	8.200	8.015	92.219	0.066	0.014	-0.063	117.000	21.320	21.255	24.765	21.840	9.949	3.494	3.487	34.696	0.126	NaN	-0.128	117.000	7.475	21.190	6.240	22.100	4.711	1.534	1.518	7.149	-0.115	0.039	0.143	117.000	10.335	23.335	9.620	24.570	4.545	1.427	1.388	6.308	-0.047	-0.056	-0.033	117.000	18.590	22.815	28.080	25.415	7.942	9.840	9.566	75.974	0.184	0.080	-0.080	117.000	12.545	24.050	15.210	28.145	5.151	4.886	4.501	23.187	-0.022	-0.054	-0.161	NaN	NaN	NaN	NaN	NaN	NaN	NaN	NaN	NaN	NaN	NaN	NaN	NaN	NaN	NaN	NaN	NaN	NaN	NaN	NaN	NaN	NaN	NaN	NaN
118	117.000	118.000	9.035	14.560	9.230	13.520	5.184	1.058	0.802	4.157	0.017	NaN	-0.076	118.000	14.365	15.925	16.640	11.505	4.146	4.971	4.824	20.001	-0.081	NaN	0.088	118.000	18.070	16.315	26.780	14.755	6.990	8.849	8.628	60.308	-0.017	NaN	NaN	118.000	23.140	18.850	31.200	16.965	11.507	8.277	8.091	93.098	0.076	0.078	NaN	118.000	21.320	21.255	24.700	21.840	9.934	3.430	3.425	34.028	-0.062	-0.064	NaN	118.000	7.540	21.125	6.305	22.100	4.593	1.573	1.543	7.085	0.025	-0.051	-0.091	118.000	10.335	23.205	9.555	24.570	4.358	1.572	1.536	6.692	0.148	0.032	-0.113	118.000	18.525	22.945	28.145	25.350	7.917	9.916	9.557	75.661	-0.009	0.047	-0.032	118.000	12.415	23.855	15.210	28.210	4.873	5.175	4.746	23.128	0.245	0.055	-0.234	NaN	NaN	NaN	NaN	NaN	NaN	NaN	NaN	NaN	NaN	NaN	NaN	NaN	NaN	NaN	NaN	NaN	NaN	NaN	NaN	NaN	NaN	NaN	NaN
119	118.000	119.000	9.035	14.495	9.230	13.520	5.265	0.994	0.761	4.005	-0.041	NaN	0.064	119.000	14.300	15.860	16.640	11.570	4.244	4.887	4.790	20.331	-0.035	-0.057	0.026	119.000	17.940	16.380	26.845	14.755	6.930	9.052	8.825	61.161	0.198	0.064	-0.140	119.000	23.075	18.915	31.200	16.965	11.507	8.356	8.157	93.858	0.066	NaN	-0.078	119.000	21.320	21.190	24.765	21.840	9.969	3.506	3.505	34.941	0.079	0.064	-0.012	119.000	7.410	21.125	6.240	22.035	4.622	1.482	1.450	6.701	-0.093	0.011	0.103	119.000	10.270	23.270	9.620	24.570	4.358	1.453	1.435	6.253	-0.101	-0.029	0.087	119.000	18.460	22.815	28.145	25.350	7.823	10.011	9.731	76.122	0.174	NaN	-0.096	119.000	12.285	23.660	15.210	28.210	4.606	5.409	4.949	22.794	0.203	NaN	-0.234	NaN	NaN	NaN	NaN	NaN	NaN	NaN	NaN	NaN	NaN	NaN	NaN	NaN	NaN	NaN	NaN	NaN	NaN	NaN	NaN	NaN	NaN	NaN	NaN
120	119.000	120.000	9.035	14.560	9.230	13.520	5.265	1.058	0.818	4.305	0.057	NaN	-0.064	120.000	14.365	15.860	16.640	11.570	4.336	4.856	4.746	20.580	-0.044	NaN	0.030	120.000	18.005	16.315	27.040	14.690	7.042	9.180	8.916	62.788	0.091	0.203	0.075	120.000	23.010	18.915	31.135	17.030	11.443	8.341	8.166	93.440	0.009	-0.078	-0.063	120.000	21.905	21.255	24.700	21.775	10.542	2.843	2.843	29.968	-0.662	-0.076	0.587	120.000	7.800	20.995	6.370	22.035	4.186	1.768	1.740	7.284	0.290	-0.105	-0.392	120.000	10.335	23.270	9.620	24.570	4.277	1.484	1.451	6.207	0.016	NaN	-0.031	120.000	18.525	22.815	28.340	25.350	7.850	10.137	9.872	77.491	0.141	0.189	0.063	120.000	12.155	23.335	15.210	28.145	4.201	5.698	5.189	21.797	0.240	-0.055	-0.344	NaN	NaN	NaN	NaN	NaN	NaN	NaN	NaN	NaN	NaN	NaN	NaN	NaN	NaN	NaN	NaN	NaN	NaN	NaN	NaN	NaN	NaN	NaN	NaN
121	120.000	121.000	9.100	14.365	9.230	13.520	5.495	0.855	0.690	3.790	-0.128	NaN	0.203	121.000	14.365	15.795	16.640	11.570	4.396	4.799	4.724	20.766	-0.022	NaN	0.057	121.000	17.810	16.445	27.235	14.625	6.778	9.599	9.337	63.286	0.421	0.204	-0.216	121.000	23.140	18.850	31.070	17.030	11.512	8.136	7.987	91.944	-0.179	-0.063	0.141	121.000	21.970	21.190	24.765	21.775	10.517	2.856	2.855	30.027	0.012	0.064	0.050	121.000	7.995	20.865	6.370	22.035	3.986	2.002	1.961	7.816	0.221	NaN	-0.234	121.000	10.465	23.075	9.620	24.570	4.010	1.717	1.677	6.722	0.225	NaN	-0.234	121.000	18.525	22.750	28.405	25.285	7.733	10.200	9.954	76.971	0.083	0.047	-0.016	121.000	12.220	23.270	15.145	28.145	4.072	5.685	5.245	21.357	0.056	-0.033	-0.022	NaN	NaN	NaN	NaN	NaN	NaN	NaN	NaN	NaN	NaN	NaN	NaN	NaN	NaN	NaN	NaN	NaN	NaN	NaN	NaN	NaN	NaN	NaN	NaN
