 	dT	T (0)	Base X (0)	Base Y (0)	Tip X (0)	Tip Y (0)	||[body,base]|| (0)	||[base,tip]||  (0)	||[base,tip]|| : [body,base] (0)	[base,tip] ? [body,base] (0)	?||[base,tip]|| : [body,base] (0)	||[tip(t-1),tip(t)]|| : [base,tip] (0)	||[base(t-1),base(t)]|| : [base,tip] (0)	T (1)	Base X (1)	Base Y (1)	Tip X (1)	Tip Y (1)	||[body,base]|| (1)	||[base,tip]||  (1)	||[base,tip]|| : [body,base] (1)	[base,tip] ? [body,base] (1)	?||[base,tip]|| : [body,base] (1)	||[tip(t-1),tip(t)]|| : [base,tip] (1)	||[base(t-1),base(t)]|| : [base,tip] (1)	T (2)	Base X (2)	Base Y (2)	Tip X (2)	Tip Y (2)	||[body,base]|| (2)	||[base,tip]||  (2)	||[base,tip]|| : [body,base] (2)	[base,tip] ? [body,base] (2)	?||[base,tip]|| : [body,base] (2)	||[tip(t-1),tip(t)]|| : [base,tip] (2)	||[base(t-1),base(t)]|| : [base,tip] (2)	T (3)	Base X (3)	Base Y (3)	Tip X (3)	Tip Y (3)	||[body,base]|| (3)	||[base,tip]||  (3)	||[base,tip]|| : [body,base] (3)	[base,tip] ? [body,base] (3)	?||[base,tip]|| : [body,base] (3)	||[tip(t-1),tip(t)]|| : [base,tip] (3)	||[base(t-1),base(t)]|| : [base,tip] (3)	T (4)	Base X (4)	Base Y (4)	Tip X (4)	Tip Y (4)	||[body,base]|| (4)	||[base,tip]||  (4)	||[base,tip]|| : [body,base] (4)	[base,tip] ? [body,base] (4)	?||[base,tip]|| : [body,base] (4)	||[tip(t-1),tip(t)]|| : [base,tip] (4)	||[base(t-1),base(t)]|| : [base,tip] (4)	T (5)	Base X (5)	Base Y (5)	Tip X (5)	Tip Y (5)	||[body,base]|| (5)	||[base,tip]||  (5)	||[base,tip]|| : [body,base] (5)	[base,tip] ? [body,base] (5)	?||[base,tip]|| : [body,base] (5)	||[tip(t-1),tip(t)]|| : [base,tip] (5)	||[base(t-1),base(t)]|| : [base,tip] (5)	T (6)	Base X (6)	Base Y (6)	Tip X (6)	Tip Y (6)	||[body,base]|| (6)	||[base,tip]||  (6)	||[base,tip]|| : [body,base] (6)	[base,tip] ? [body,base] (6)	?||[base,tip]|| : [body,base] (6)	||[tip(t-1),tip(t)]|| : [base,tip] (6)	||[base(t-1),base(t)]|| : [base,tip] (6)	T (7)	Base X (7)	Base Y (7)	Tip X (7)	Tip Y (7)	||[body,base]|| (7)	||[base,tip]||  (7)	||[base,tip]|| : [body,base] (7)	[base,tip] ? [body,base] (7)	?||[base,tip]|| : [body,base] (7)	||[tip(t-1),tip(t)]|| : [base,tip] (7)	||[base(t-1),base(t)]|| : [base,tip] (7)	T (8)	Base X (8)	Base Y (8)	Tip X (8)	Tip Y (8)	||[body,base]|| (8)	||[base,tip]||  (8)	||[base,tip]|| : [body,base] (8)	[base,tip] ? [body,base] (8)	?||[base,tip]|| : [body,base] (8)	||[tip(t-1),tip(t)]|| : [base,tip] (8)	||[base(t-1),base(t)]|| : [base,tip] (8)	T (9)	Base X (9)	Base Y (9)	Tip X (9)	Tip Y (9)	||[body,base]|| (9)	||[base,tip]||  (9)	||[base,tip]|| : [body,base] (9)	[base,tip] ? [body,base] (9)	?||[base,tip]|| : [body,base] (9)	||[tip(t-1),tip(t)]|| : [base,tip] (9)	||[base(t-1),base(t)]|| : [base,tip] (9)	T (10)	Base X (10)	Base Y (10)	Tip X (10)	Tip Y (10)	||[body,base]|| (10)	||[base,tip]||  (10)	||[base,tip]|| : [body,base] (10)	[base,tip] ? [body,base] (10)	?||[base,tip]|| : [body,base] (10)	||[tip(t-1),tip(t)]|| : [base,tip] (10)	||[base(t-1),base(t)]|| : [base,tip] (10)
1	0.000	1.000	40.885	33.215	42.705	30.615	32.513	3.174	3.172	103.141	NaN	NaN	NaN	1.000	38.935	33.995	41.210	21.775	30.742	12.430	11.345	348.761	NaN	NaN	NaN	1.000	41.340	38.285	42.185	37.765	28.921	0.992	0.959	27.724	NaN	NaN	NaN	1.000	40.950	41.080	43.940	40.365	26.674	3.074	2.674	71.318	NaN	NaN	NaN	1.000	33.930	41.925	28.015	38.285	21.376	6.945	-0.498	-10.647	NaN	NaN	NaN	1.000	42.705	46.605	49.205	44.200	24.747	6.931	6.815	168.641	NaN	NaN	NaN	1.000	42.510	48.230	49.010	51.090	23.783	7.101	4.427	105.287	NaN	NaN	NaN	45.000	41.145	36.660	41.210	36.595	30.274	0.092	0.092	2.776	NaN	NaN	NaN	50.000	35.815	39.845	35.750	39.780	24.611	0.092	0.014	0.351	NaN	NaN	NaN	58.000	39.910	42.120	39.975	42.250	25.521	0.145	-0.042	-1.065	NaN	NaN	NaN	84.000	39.455	43.745	39.845	44.265	24.098	0.650	-0.046	-1.115	NaN	NaN	NaN
2	1.000	2.000	40.820	33.280	42.770	30.420	32.449	3.462	3.459	112.250	0.287	0.198	-0.090	2.000	38.935	33.865	41.210	21.775	30.883	12.302	11.279	348.322	-0.066	NaN	0.128	2.000	41.470	38.220	42.315	37.765	29.062	0.960	0.910	26.449	-0.049	0.114	0.145	2.000	40.950	41.080	43.875	40.430	26.668	2.996	2.571	68.572	-0.102	-0.078	NaN	2.000	33.865	41.860	28.015	38.350	21.423	6.822	-0.479	-10.267	0.019	-0.033	0.089	2.000	42.965	46.475	49.335	44.135	24.993	6.786	6.662	166.490	-0.153	0.144	0.289	2.000	42.575	48.230	49.010	51.090	23.786	7.042	4.336	103.128	-0.091	NaN	0.059	46.000	41.210	36.660	41.340	36.595	30.366	0.145	0.134	4.077	0.043	0.116	0.058	51.000	36.140	39.910	35.880	39.845	24.843	0.268	-0.104	-2.577	-0.118	-0.142	-0.331	59.000	39.845	42.185	39.910	42.315	25.521	0.145	-0.042	-1.065	4.892E-15	0.029	0.029	85.000	39.390	43.745	39.780	45.305	23.708	1.608	-0.748	-17.745	-0.702	0.993	-0.016
3	2.000	3.000	40.820	33.280	42.900	30.355	32.397	3.589	3.589	116.259	0.129	0.128	NaN	3.000	39.000	33.800	41.210	21.710	30.919	12.290	11.234	347.337	-0.045	0.064	0.076	3.000	41.535	38.220	42.315	37.765	29.060	0.903	0.866	25.177	-0.044	NaN	0.056	3.000	40.820	41.080	43.745	40.495	26.529	2.983	2.524	66.962	-0.047	-0.140	-0.127	3.000	33.865	41.795	28.080	38.350	21.423	6.733	-0.495	-10.609	-0.016	-0.056	0.033	3.000	42.965	46.540	49.335	44.135	24.926	6.809	6.701	167.018	0.039	NaN	-0.023	3.000	42.510	48.230	48.945	50.960	23.698	6.990	4.403	104.341	0.067	-0.111	-0.060	47.000	41.080	36.790	41.275	36.660	30.232	0.234	0.226	6.828	0.092	-0.090	-0.180	NaN	NaN	NaN	NaN	NaN	NaN	NaN	NaN	NaN	NaN	NaN	NaN	60.000	39.845	42.120	39.975	42.380	25.476	0.291	-0.083	-2.113	-0.041	0.087	-0.058	86.000	39.390	43.680	39.780	44.395	23.751	0.814	-0.187	-4.445	0.561	-0.799	-0.057
4	3.000	4.000	40.625	33.605	42.965	30.290	32.138	4.058	4.057	130.388	0.469	0.091	-0.378	4.000	39.000	33.800	41.145	21.905	31.044	12.087	11.062	343.404	-0.172	-0.203	NaN	4.000	41.535	38.220	42.315	37.830	29.157	0.872	0.817	23.829	-0.049	-0.029	NaN	4.000	40.690	41.145	43.615	40.495	26.478	2.996	2.555	67.663	0.031	-0.127	-0.141	4.000	33.930	41.795	28.015	38.285	21.583	6.878	-0.481	-10.381	0.014	0.089	-0.056	4.000	43.095	46.475	49.530	44.070	25.116	6.870	6.747	169.452	0.046	0.205	0.145	4.000	42.445	48.165	48.945	50.960	23.707	7.075	4.362	103.407	-0.041	NaN	-0.085	48.000	41.080	36.855	41.340	36.595	30.182	0.368	0.367	11.070	0.141	0.092	-0.046	53.000	36.205	39.845	35.880	39.910	24.986	0.331	-0.247	-6.160	-0.247	NaN	NaN	61.000	39.780	42.120	39.910	42.445	25.340	0.350	-0.127	-3.211	-0.044	0.036	-0.024	87.000	39.390	43.680	39.910	44.590	23.665	1.048	-0.216	-5.121	-0.029	0.234	NaN
5	4.000	5.000	40.495	33.735	42.965	30.225	32.047	4.292	4.291	137.524	0.234	0.053	-0.181	5.000	38.935	33.930	41.145	21.970	30.990	12.162	11.146	345.428	0.085	-0.064	-0.140	5.000	41.470	38.220	42.315	37.765	29.205	0.960	0.909	26.537	0.091	0.031	-0.057	5.000	40.755	41.145	43.550	40.495	26.617	2.870	2.464	65.593	-0.091	-0.063	0.063	5.000	33.800	41.860	28.015	38.350	21.546	6.767	-0.390	-8.408	0.091	-0.034	0.077	5.000	42.965	46.540	49.660	44.005	25.060	7.159	7.035	176.292	0.288	0.145	-0.145	5.000	42.445	48.165	48.880	50.960	23.795	7.016	4.299	102.291	-0.063	-0.060	NaN	49.000	41.145	36.725	41.340	36.595	30.422	0.234	0.226	6.866	-0.141	NaN	0.126	54.000	36.270	39.845	36.010	39.845	24.973	0.260	-0.156	-3.904	0.090	-0.130	-0.065	62.000	39.780	42.185	39.975	42.445	25.252	0.325	-0.034	-0.849	0.093	0.039	0.052	88.000	39.455	43.810	40.040	44.655	23.584	1.028	-0.116	-2.746	0.100	0.127	0.144
6	5.000	6.000	40.365	33.930	42.965	30.225	31.866	4.526	4.525	144.208	0.234	NaN	-0.234	6.000	39.000	33.995	41.145	22.100	31.027	12.087	11.048	342.770	-0.099	-0.128	-0.052	6.000	41.535	38.155	42.250	37.700	29.344	0.847	0.820	24.057	-0.089	-0.020	0.090	6.000	40.430	41.210	43.485	40.495	26.384	3.138	2.683	70.786	0.219	-0.063	-0.331	6.000	33.865	41.795	28.015	38.350	21.690	6.789	-0.474	-10.288	-0.084	NaN	-0.023	6.000	42.965	46.540	49.790	43.875	25.094	7.327	7.211	180.944	0.176	0.168	NaN	6.000	42.445	48.165	48.750	50.960	23.827	6.897	4.172	99.397	-0.127	-0.119	NaN	50.000	41.080	36.725	41.340	36.465	30.330	0.368	0.367	11.120	0.141	0.092	-0.046	55.000	36.205	39.845	35.620	39.585	24.882	0.640	-0.144	-3.574	0.013	0.462	0.059	63.000	39.845	42.185	40.040	42.575	25.255	0.436	-0.120	-3.042	-0.087	0.145	0.029	89.000	39.520	43.940	40.040	44.785	23.499	0.992	-0.161	-3.790	-0.045	0.111	0.145
7	6.000	7.000	40.170	34.255	43.030	30.095	31.383	5.048	5.046	158.353	0.520	0.144	-0.378	7.000	39.000	33.865	41.145	22.100	31.027	11.959	10.940	339.432	-0.108	NaN	0.128	7.000	41.405	38.220	42.250	37.700	29.113	0.992	0.956	27.839	0.136	NaN	-0.145	7.000	40.300	41.210	43.485	40.495	26.200	3.264	2.776	72.729	0.093	NaN	-0.127	7.000	33.930	41.600	27.950	38.285	21.780	6.837	-0.660	-14.382	-0.186	0.088	0.038	7.000	42.965	46.540	49.985	43.810	25.026	7.532	7.417	185.613	0.206	0.205	NaN	7.000	42.445	48.230	48.750	50.895	23.733	6.845	4.273	101.413	0.101	-0.025	0.025	51.000	41.210	36.595	41.470	36.400	30.605	0.325	0.317	9.713	-0.049	0.143	0.182	56.000	36.140	39.780	35.750	39.845	24.908	0.395	-0.284	-7.081	-0.141	-0.085	0.053	64.000	39.910	42.250	40.170	42.575	25.124	0.416	-0.026	-0.659	0.094	0.081	0.091	90.000	39.845	44.525	40.105	44.850	23.461	0.416	-0.005	-0.123	0.156	0.091	0.660
8	7.000	8.000	40.300	34.060	43.160	29.900	31.656	5.048	5.046	159.722	-2.145E-4	0.234	0.234	8.000	39.000	33.735	41.210	21.905	31.171	12.035	11.033	343.915	0.093	0.204	0.128	8.000	41.535	38.155	42.315	37.570	29.294	0.975	0.960	28.126	0.004	0.130	0.143	8.000	40.170	41.275	43.615	40.495	26.108	3.532	3.007	78.513	0.231	0.127	-0.141	8.000	33.930	41.665	28.015	38.350	21.763	6.781	-0.652	-14.179	0.009	-0.088	-0.032	8.000	42.900	46.540	50.115	43.745	25.026	7.737	7.617	190.628	0.200	0.145	-0.061	8.000	42.380	48.165	48.685	50.895	23.764	6.871	4.229	100.500	-0.044	-0.060	-0.085	52.000	41.210	36.660	41.665	36.075	30.563	0.741	0.740	22.625	0.423	0.376	-0.051	57.000	36.075	39.780	35.815	39.585	24.908	0.325	0.002	0.051	0.286	0.104	0.052	65.000	39.975	42.315	40.365	42.510	25.264	0.436	0.158	3.993	0.184	0.145	0.087	91.000	40.105	44.850	40.300	44.915	23.460	0.206	0.113	2.641	0.118	0.206	0.349
9	8.000	9.000	40.235	34.125	43.225	29.705	31.604	5.336	5.332	168.501	0.286	0.198	-0.090	9.000	38.935	33.865	41.210	21.905	31.063	12.174	11.166	346.851	0.133	NaN	-0.140	9.000	41.600	38.025	42.445	37.440	29.477	1.028	1.005	29.613	0.044	0.181	0.127	9.000	40.495	41.145	43.745	40.495	26.478	3.314	2.789	73.853	-0.218	0.127	0.344	9.000	34.515	41.925	28.080	38.285	21.931	7.393	-0.910	-19.955	-0.258	-0.025	-0.637	9.000	42.770	46.540	50.245	43.680	24.971	8.003	7.871	196.547	0.254	0.145	-0.121	9.000	42.445	48.230	48.620	50.830	23.848	6.700	4.203	100.238	-0.026	-0.085	0.085	53.000	41.210	36.725	41.730	36.205	30.556	0.735	0.733	22.409	-0.007	-0.046	-0.046	58.000	36.140	39.715	35.815	39.585	24.804	0.350	-0.090	-2.231	-0.092	NaN	-0.036	66.000	40.105	42.380	40.430	42.575	25.273	0.379	0.113	2.843	-0.046	0.089	0.145	NaN	NaN	NaN	NaN	NaN	NaN	NaN	NaN	NaN	NaN	NaN	NaN
10	9.000	10.000	40.300	33.995	43.420	29.510	31.852	5.463	5.462	173.964	0.130	0.271	0.144	10.000	39.000	33.865	41.210	21.775	31.207	12.290	11.240	350.768	0.074	0.128	0.012	10.000	41.795	37.895	42.575	37.440	29.800	0.903	0.865	25.777	-0.140	0.112	0.234	10.000	40.300	41.210	43.810	40.430	26.384	3.596	3.053	80.562	0.264	0.078	-0.204	10.000	34.515	41.860	28.015	38.285	22.088	7.418	-0.962	-21.252	-0.052	0.057	0.031	10.000	42.640	46.605	50.310	43.680	24.894	8.209	8.064	200.742	0.193	0.061	-0.145	10.000	42.380	48.165	48.555	50.830	23.884	6.726	4.128	98.582	-0.076	-0.060	-0.085	54.000	41.145	36.725	41.795	36.075	30.464	0.919	0.917	27.927	0.183	0.138	-0.046	59.000	36.075	39.650	35.620	39.845	24.908	0.495	-0.427	-10.647	-0.338	0.282	0.034	67.000	40.105	42.445	40.495	42.705	25.230	0.469	0.119	2.991	0.006	0.126	0.036	93.000	39.650	44.330	40.170	45.045	23.353	0.884	-0.058	-1.360	-0.058	-0.282	0.196
11	10.000	11.000	40.235	34.190	43.615	29.315	31.604	5.932	5.929	187.391	0.468	0.271	-0.197	11.000	38.935	33.930	41.210	21.775	31.063	12.366	11.327	351.858	0.087	NaN	-0.076	11.000	42.120	37.830	42.575	37.245	30.023	0.741	0.738	22.143	-0.127	0.154	0.251	11.000	40.430	41.210	43.940	40.430	26.431	3.596	3.063	80.968	0.010	0.127	0.127	11.000	34.515	41.860	28.015	38.285	22.036	7.418	-0.975	-21.484	-0.013	NaN	NaN	11.000	42.640	46.605	50.375	43.615	24.860	8.293	8.157	202.775	0.093	0.084	NaN	11.000	42.380	48.165	48.490	50.895	23.852	6.692	4.052	96.651	-0.076	-0.033	NaN	55.000	41.145	36.725	41.730	36.075	30.415	0.874	0.874	26.592	-0.042	-0.043	NaN	60.000	36.140	39.650	35.555	39.520	24.843	0.599	-0.246	-6.122	0.181	0.134	-0.063	68.000	40.235	42.380	40.495	42.770	25.327	0.469	-0.063	-1.606	-0.182	0.054	0.018	94.000	39.585	44.135	39.585	45.240	23.562	1.105	-0.716	-16.879	-0.658	0.195	-0.195
12	11.000	12.000	40.235	34.190	43.745	29.120	31.747	6.166	6.164	195.677	0.234	0.234	NaN	12.000	38.935	34.125	41.210	21.775	31.046	12.558	11.473	356.210	0.146	NaN	-0.192	12.000	42.055	37.895	42.770	37.180	30.070	1.011	1.011	30.395	0.273	0.184	-0.092	12.000	40.430	41.145	44.070	40.365	26.614	3.723	3.150	83.824	0.086	0.141	0.014	12.000	34.450	41.730	28.080	38.350	22.246	7.211	-1.005	-22.367	-0.030	-0.088	0.118	12.000	42.640	46.605	50.440	43.615	24.983	8.353	8.207	205.048	0.051	0.061	NaN	12.000	42.315	48.165	48.425	50.830	23.915	6.666	4.058	97.048	0.006	-0.086	-0.060	56.000	41.210	36.595	41.795	36.010	30.563	0.827	0.825	25.211	-0.049	0.092	0.138	61.000	35.945	39.585	35.425	39.390	24.674	0.555	-0.153	-3.773	0.094	0.167	0.205	69.000	40.105	42.315	40.495	42.835	25.182	0.650	-0.055	-1.394	0.008	0.052	-0.130	95.000	39.585	44.135	40.235	45.045	23.604	1.118	-0.097	-2.298	0.619	0.219	NaN
13	12.000	13.000	40.105	34.450	43.875	28.990	31.565	6.635	6.632	209.340	0.468	0.181	-0.288	13.000	38.870	34.255	41.210	21.840	31.010	12.634	11.573	358.863	0.099	-0.064	-0.140	13.000	41.990	37.960	42.835	37.050	30.073	1.242	1.242	37.345	0.231	0.139	-0.092	13.000	40.430	41.210	44.070	40.365	26.659	3.737	3.192	85.087	0.042	NaN	-0.015	13.000	34.515	41.795	28.210	38.415	22.337	7.154	-0.972	-21.708	0.034	-0.145	-0.088	13.000	42.575	46.540	50.440	43.615	25.031	8.391	8.215	205.635	0.008	NaN	-0.038	13.000	42.380	48.165	48.425	50.830	24.035	6.606	3.983	95.734	-0.075	NaN	0.059	57.000	41.145	36.725	41.860	35.880	30.464	1.107	1.107	33.720	0.282	0.141	-0.141	62.000	35.880	39.585	35.360	39.390	24.583	0.555	-0.153	-3.752	2.938E-4	0.061	0.061	70.000	40.105	42.380	40.430	42.965	25.225	0.669	-0.148	-3.743	-0.093	0.082	0.057	96.000	39.585	44.200	40.430	44.980	23.562	1.150	0.138	3.245	0.235	0.099	0.044
14	13.000	14.000	40.170	34.385	44.005	28.795	31.656	6.779	6.775	214.474	0.143	0.234	0.090	14.000	38.935	34.385	41.210	21.775	30.939	12.814	11.675	361.229	0.103	0.064	-0.116	14.000	42.055	37.895	42.835	36.920	30.165	1.249	1.245	37.543	0.003	0.102	0.091	14.000	40.625	41.080	44.200	40.430	26.890	3.634	3.012	80.993	-0.180	0.116	0.215	14.000	34.515	41.860	28.210	38.415	22.284	7.185	-0.931	-20.757	0.040	NaN	-0.031	14.000	42.640	46.605	50.505	43.550	25.052	8.437	8.290	207.680	0.075	0.084	0.037	14.000	42.380	48.165	48.360	50.830	24.035	6.547	3.926	94.370	-0.057	-0.059	NaN	58.000	41.145	36.660	41.860	35.815	30.323	1.107	1.107	33.563	-1.266E-5	0.050	0.050	63.000	35.880	39.585	35.230	39.325	24.531	0.700	-0.179	-4.386	-0.026	0.145	NaN	71.000	40.040	42.380	40.495	42.900	25.133	0.691	-0.008	-0.203	0.140	-0.006	-0.043	97.000	40.040	44.720	40.365	44.915	23.541	0.379	0.132	3.114	-0.005	-0.089	0.658
15	14.000	15.000	40.170	34.320	44.200	28.665	31.656	6.944	6.943	219.793	0.168	0.219	0.053	15.000	38.935	34.450	41.275	21.775	30.832	12.889	11.753	362.378	0.078	0.012	-0.064	15.000	41.990	37.830	42.900	36.660	30.121	1.482	1.476	44.455	0.231	0.245	0.011	15.000	40.495	41.080	44.330	40.365	26.751	3.901	3.240	86.672	0.228	0.140	-0.128	15.000	34.580	41.925	28.210	38.415	22.218	7.273	-0.959	-21.311	-0.028	NaN	-0.088	15.000	42.510	46.605	50.635	43.485	24.907	8.703	8.544	212.809	0.254	0.145	-0.121	15.000	42.315	48.100	48.230	50.765	23.978	6.488	3.863	92.620	-0.064	-0.145	-0.086	59.000	41.080	36.660	41.990	35.750	30.373	1.287	1.283	38.980	0.177	0.138	-0.046	64.000	36.010	39.650	35.295	39.260	24.414	0.814	-0.119	-2.898	0.060	-0.026	-0.145	72.000	39.975	42.250	40.560	42.900	25.172	0.874	-0.003	-0.072	0.005	0.043	-0.140	98.000	39.845	44.590	40.430	44.915	23.439	0.669	0.252	5.911	0.120	0.057	-0.234
16	15.000	16.000	40.170	34.385	44.330	28.470	31.604	7.231	7.229	228.475	0.286	0.234	-0.053	16.000	38.935	34.255	41.275	21.645	30.993	12.825	11.719	363.189	-0.035	0.128	0.192	16.000	42.055	37.635	43.095	36.400	30.307	1.615	1.612	48.871	0.137	0.324	0.191	16.000	40.560	41.080	44.330	40.365	26.798	3.837	3.197	85.675	-0.043	NaN	0.064	16.000	34.580	41.925	28.275	38.415	22.218	7.216	-0.921	-20.453	0.039	-0.057	NaN	16.000	42.640	46.605	50.700	43.485	25.018	8.643	8.493	212.484	-0.051	0.061	0.121	16.000	42.380	48.165	48.230	50.765	24.003	6.402	3.857	92.570	-0.006	NaN	0.086	60.000	41.015	36.725	41.925	35.685	30.182	1.382	1.382	41.709	0.099	0.006	-0.092	65.000	36.075	39.650	35.165	39.195	24.596	1.017	-0.185	-4.555	-0.066	0.145	-0.058	73.000	40.040	42.315	40.885	42.965	25.268	1.066	0.193	4.888	0.196	0.297	0.091	99.000	39.715	44.460	40.560	44.980	23.461	0.992	0.323	7.584	0.071	0.145	-0.179
17	16.000	17.000	40.040	34.450	44.460	28.275	31.527	7.594	7.593	239.393	0.364	0.234	-0.129	17.000	39.000	34.255	41.340	21.710	31.083	12.761	11.662	362.497	-0.056	-0.052	0.012	17.000	42.185	37.505	43.160	36.205	30.539	1.625	1.616	49.348	0.003	0.195	0.182	17.000	40.690	41.015	44.330	40.430	26.982	3.687	3.013	81.297	-0.184	-0.010	0.139	17.000	34.450	41.860	28.275	38.415	22.246	7.071	-0.838	-18.649	0.082	NaN	0.145	17.000	42.575	46.605	50.700	43.485	24.997	8.703	8.543	213.540	0.049	NaN	-0.061	17.000	42.315	48.165	48.230	50.765	23.978	6.461	3.894	93.381	0.038	NaN	-0.060	61.000	41.015	36.725	41.925	35.685	30.084	1.382	1.382	41.574	1.427E-5	NaN	NaN	66.000	35.945	39.715	35.035	39.065	24.414	1.118	-0.028	-0.693	0.157	0.181	0.068	74.000	40.105	42.380	40.950	43.095	25.182	1.107	0.154	3.883	-0.039	0.134	0.092	100.000	39.845	44.460	40.690	45.045	23.521	1.028	0.288	6.764	-0.036	0.144	0.107
18	17.000	18.000	40.105	34.385	44.655	28.080	31.513	7.775	7.775	245.008	0.182	0.272	0.091	18.000	39.000	34.125	41.275	21.710	31.083	12.622	11.518	358.022	-0.144	-0.012	0.128	18.000	42.120	37.505	43.225	36.010	30.399	1.859	1.847	56.146	0.231	0.195	-0.039	18.000	40.690	41.015	44.265	40.430	26.891	3.623	2.974	79.967	-0.039	-0.064	NaN	18.000	34.515	41.925	28.275	38.415	22.127	7.159	-0.878	-19.418	-0.039	NaN	-0.089	18.000	42.510	46.670	50.830	43.355	24.839	8.956	8.820	219.070	0.277	0.169	-0.084	18.000	42.315	48.100	48.490	50.830	23.947	6.752	4.071	97.479	0.176	0.264	-0.026	62.000	41.080	36.725	41.990	35.685	30.078	1.382	1.382	41.566	2.997E-6	0.043	0.043	67.000	35.945	39.650	35.035	39.065	24.466	1.082	-0.079	-1.922	-0.050	NaN	0.035	75.000	40.170	42.575	41.080	43.160	25.193	1.082	0.297	7.478	0.143	0.145	0.160	101.000	39.325	44.005	40.820	45.240	23.238	1.939	0.336	7.808	0.048	0.224	-0.691
19	18.000	19.000	40.105	34.385	44.785	27.885	31.408	8.010	8.009	251.540	0.234	0.234	NaN	19.000	39.000	33.865	41.275	21.775	31.190	12.302	11.262	351.271	-0.256	-0.064	0.256	19.000	42.185	37.375	43.355	35.815	30.444	1.950	1.938	59.015	0.092	0.234	0.143	19.000	40.625	40.950	44.265	40.430	26.799	3.677	2.975	79.734	0.002	NaN	-0.055	19.000	34.385	41.665	28.275	38.415	22.155	6.921	-0.954	-21.125	-0.076	NaN	0.237	19.000	42.575	46.670	51.155	43.225	24.826	9.246	9.118	226.371	0.299	0.350	0.060	19.000	42.380	48.100	48.750	50.895	23.941	6.956	4.243	101.582	0.172	0.264	0.060	63.000	41.080	36.725	41.925	35.750	30.029	1.290	1.290	38.743	-0.092	-0.092	NaN	68.000	36.075	39.715	34.970	39.000	24.441	1.316	-0.101	-2.480	-0.023	0.090	-0.144	76.000	40.235	42.510	41.080	43.160	25.236	1.066	0.203	5.125	-0.094	NaN	0.012	102.000	39.260	43.940	41.015	45.240	23.196	2.184	0.496	11.509	0.160	0.157	-0.091
20	19.000	20.000	40.040	34.190	44.915	27.625	31.370	8.177	8.177	256.512	0.168	0.286	0.118	20.000	39.000	33.605	41.145	21.840	31.244	11.959	10.926	341.380	-0.336	-0.087	0.256	20.000	42.055	37.440	43.550	35.685	30.165	2.305	2.303	69.459	0.364	0.225	-0.134	20.000	40.625	41.015	44.330	40.365	26.619	3.762	3.127	83.241	0.152	0.075	-0.011	20.000	34.450	41.730	28.275	38.415	21.984	7.009	-1.004	-22.067	-0.050	NaN	-0.088	20.000	42.510	46.670	51.285	43.160	24.669	9.451	9.327	230.089	0.209	0.145	-0.060	20.000	42.315	48.100	48.750	50.895	23.790	7.016	4.333	103.073	0.089	NaN	-0.060	64.000	41.080	36.725	41.925	35.685	29.889	1.340	1.339	40.019	0.049	0.050	NaN	69.000	36.010	39.715	34.905	38.935	24.310	1.353	-0.046	-1.124	0.055	0.091	0.053	77.000	40.300	42.640	41.145	43.225	25.290	1.028	0.251	6.359	0.048	0.090	0.127	103.000	39.195	44.005	41.080	45.305	22.928	2.290	0.606	13.900	0.110	0.090	-0.017
21	20.000	21.000	40.105	34.190	44.980	27.495	31.461	8.282	8.282	260.543	0.104	0.143	0.038	21.000	39.065	33.605	41.210	22.035	31.334	11.767	10.763	337.240	-0.164	-0.180	0.012	21.000	41.990	37.570	43.680	35.490	30.073	2.680	2.673	80.385	0.370	0.233	-0.142	21.000	40.625	41.080	44.330	40.365	26.619	3.773	3.172	84.437	0.045	NaN	-0.012	21.000	34.450	41.730	28.210	38.415	22.036	7.066	-1.030	-22.701	-0.026	0.057	NaN	21.000	42.510	46.670	51.415	43.095	24.703	9.596	9.468	233.896	0.141	0.145	NaN	21.000	42.250	48.035	48.880	50.960	23.795	7.247	4.407	104.873	0.075	0.145	-0.086	65.000	41.080	36.725	41.990	35.685	30.029	1.382	1.382	41.498	0.043	0.043	NaN	70.000	36.075	39.715	34.905	39.000	24.453	1.371	-0.136	-3.321	-0.090	-0.034	-0.055	78.000	40.365	42.640	41.210	43.290	25.339	1.066	0.210	5.332	-0.041	0.091	0.052	104.000	39.325	44.070	41.145	45.305	23.170	2.199	0.609	14.112	0.003	0.054	0.144
22	21.000	22.000	40.040	34.320	45.110	27.365	31.370	8.607	8.607	269.986	0.325	0.182	-0.143	22.000	39.000	33.670	41.145	22.230	31.298	11.639	10.663	333.737	-0.099	-0.204	-0.076	22.000	41.925	37.570	43.875	35.360	30.076	2.947	2.946	88.607	0.273	0.226	-0.043	22.000	40.560	41.145	44.330	40.300	26.572	3.864	3.306	87.834	0.133	0.014	-0.078	22.000	34.450	41.730	28.210	38.415	22.088	7.066	-1.018	-22.485	0.012	NaN	NaN	22.000	42.510	46.670	51.545	43.030	24.737	9.741	9.610	237.711	0.141	0.145	NaN	22.000	42.315	48.100	48.945	50.895	23.852	7.195	4.477	106.791	0.070	0.035	0.085	66.000	41.145	36.595	42.055	35.685	30.121	1.287	1.284	38.684	-0.098	0.046	0.138	71.000	36.140	39.715	34.905	39.000	24.441	1.427	-0.180	-4.407	-0.044	NaN	-0.056	79.000	40.105	42.575	41.275	43.290	25.187	1.371	0.401	10.110	0.191	0.055	-0.256	105.000	39.325	44.070	41.210	45.565	23.220	2.406	0.497	11.538	-0.112	0.212	NaN
23	22.000	23.000	40.040	34.385	45.305	27.170	31.317	8.932	8.932	279.712	0.325	0.272	-0.053	23.000	39.000	33.800	41.080	22.295	31.190	11.692	10.669	332.778	0.006	-0.076	-0.128	23.000	41.795	37.635	43.940	35.230	29.940	3.223	3.222	96.461	0.276	0.140	-0.135	23.000	40.625	41.015	44.330	40.300	26.709	3.773	3.165	84.530	-0.141	NaN	0.088	23.000	34.450	41.665	28.275	38.415	22.141	6.978	-1.020	-22.583	-0.002	-0.058	0.030	23.000	42.510	46.670	51.610	43.030	24.737	9.801	9.665	239.084	0.056	0.060	NaN	23.000	42.250	48.035	48.945	50.960	23.827	7.306	4.450	106.039	-0.027	0.026	-0.086	67.000	41.080	36.595	42.055	35.685	30.078	1.334	1.327	39.914	0.043	NaN	-0.048	72.000	35.945	39.650	34.775	38.935	24.375	1.371	-0.130	-3.169	0.050	0.145	0.200	80.000	40.170	42.510	41.340	43.290	25.322	1.406	0.355	8.999	-0.046	0.054	0.018	106.000	39.130	44.525	41.340	45.370	22.831	2.366	1.186	27.078	0.689	0.052	-0.020
24	23.000	24.000	40.105	34.385	45.305	26.910	31.395	9.106	9.101	285.716	0.169	0.213	0.037	24.000	39.000	33.735	41.015	22.360	31.281	11.552	10.523	329.157	-0.147	-0.075	0.064	24.000	41.795	37.635	44.200	35.035	29.984	3.542	3.542	106.195	0.320	0.320	NaN	24.000	40.625	41.015	44.460	40.235	26.756	3.914	3.307	88.484	0.142	0.140	NaN	24.000	34.450	41.730	28.275	38.415	22.127	7.009	-0.996	-22.038	0.024	NaN	-0.031	24.000	42.510	46.735	51.610	43.030	24.759	9.825	9.705	240.272	0.039	NaN	-0.025	24.000	42.315	48.100	49.075	51.025	23.909	7.366	4.536	108.464	0.086	0.145	0.085	68.000	41.080	36.920	42.120	35.555	29.786	1.716	1.711	50.962	0.384	0.143	-0.259	73.000	36.010	39.715	34.840	38.935	24.453	1.406	-0.084	-2.053	0.046	-0.054	-0.090	81.000	40.170	42.510	41.275	43.290	25.322	1.353	0.307	7.770	-0.049	-0.053	NaN	107.000	39.195	43.940	41.340	45.500	23.112	2.652	0.636	14.703	-0.550	0.076	-0.292
25	24.000	25.000	40.105	34.450	45.370	26.780	31.499	9.303	9.297	292.839	0.196	0.144	-0.054	25.000	38.935	34.125	41.015	22.425	31.083	11.883	10.819	336.276	0.296	-0.064	-0.395	25.000	41.925	37.375	44.330	34.840	30.406	3.494	3.494	106.238	-0.048	0.231	0.278	25.000	40.495	41.080	44.460	40.235	26.752	4.054	3.431	91.792	0.124	NaN	-0.141	25.000	34.580	41.860	28.275	38.415	22.256	7.185	-0.990	-22.025	0.006	NaN	-0.176	25.000	42.445	46.735	51.545	43.030	24.805	9.825	9.692	240.403	-0.013	-0.060	-0.060	25.000	42.380	48.100	49.075	51.025	24.060	7.306	4.446	106.964	-0.091	NaN	0.060	69.000	41.080	36.920	42.185	35.555	29.694	1.756	1.754	52.090	0.043	0.041	NaN	74.000	36.010	39.650	34.840	39.000	24.414	1.338	-0.185	-4.512	-0.101	-0.032	0.032	82.000	40.105	42.510	41.275	43.290	25.404	1.406	0.345	8.771	0.038	NaN	-0.054	108.000	39.455	44.070	41.275	45.500	23.270	2.315	0.492	11.458	-0.144	-0.051	0.285
26	25.000	26.000	40.105	34.450	45.435	26.520	31.408	9.555	9.544	299.772	0.248	0.252	NaN	26.000	38.935	33.930	41.015	22.425	31.154	11.692	10.677	332.643	-0.141	NaN	0.192	26.000	41.990	37.310	44.590	34.710	30.406	3.677	3.674	111.709	0.180	0.276	0.092	26.000	40.430	41.145	44.460	40.235	26.569	4.131	3.523	93.609	0.092	NaN	-0.078	26.000	34.385	41.665	28.275	38.415	22.208	6.921	-0.942	-20.914	0.048	NaN	0.264	26.000	42.510	46.670	51.415	43.095	24.805	9.596	9.458	234.593	-0.234	-0.145	0.085	26.000	42.380	48.100	49.010	51.090	23.972	7.273	4.364	104.603	-0.082	-0.033	NaN	70.000	41.015	36.855	42.185	35.555	29.797	1.749	1.749	52.111	-0.005	NaN	0.005	75.000	35.880	39.585	34.775	38.935	24.479	1.282	-0.139	-3.401	0.046	0.089	0.145	83.000	40.040	42.510	41.405	43.355	25.307	1.605	0.441	11.162	0.096	0.145	-0.055	109.000	39.000	44.005	41.340	45.500	22.829	2.777	0.819	18.704	0.327	0.055	-0.418
27	26.000	27.000	40.105	34.450	45.500	26.260	31.552	9.807	9.792	308.962	0.248	0.253	NaN	27.000	38.935	34.060	41.080	22.490	31.190	11.767	10.760	335.596	0.082	-0.052	-0.128	27.000	41.860	37.440	44.720	34.580	30.362	4.045	4.041	122.694	0.367	0.184	-0.184	27.000	40.430	41.145	44.330	40.235	26.706	4.005	3.426	91.505	-0.097	-0.127	NaN	27.000	34.450	41.795	28.275	38.415	22.284	7.040	-0.907	-20.221	0.034	NaN	-0.119	27.000	42.380	46.735	51.415	43.095	24.783	9.741	9.596	237.834	0.139	NaN	-0.145	27.000	42.315	48.035	49.270	51.090	24.067	7.596	4.574	110.078	0.210	0.238	-0.086	71.000	41.015	36.855	42.250	35.490	29.748	1.841	1.841	54.756	0.092	0.092	NaN	76.000	35.880	39.585	34.775	39.000	24.440	1.250	-0.188	-4.605	-0.049	-0.030	NaN	84.000	40.105	42.510	41.470	43.355	25.404	1.605	0.446	11.340	0.005	0.055	0.055	110.000	39.325	44.005	41.535	45.565	23.253	2.705	0.690	16.038	-0.130	0.197	0.266
28	27.000	28.000	40.105	34.450	45.500	26.065	31.552	9.971	9.949	313.905	0.157	0.164	NaN	28.000	38.935	34.190	41.015	22.490	31.083	11.883	10.819	336.276	0.059	-0.011	-0.128	28.000	41.925	37.440	44.915	34.320	30.406	4.321	4.321	131.372	0.280	0.323	0.045	28.000	40.495	41.145	44.395	40.235	26.752	4.005	3.430	91.759	0.004	0.063	0.063	28.000	34.580	41.795	28.275	38.415	22.361	7.154	-1.017	-22.747	-0.110	NaN	-0.115	28.000	42.445	46.735	51.415	43.095	24.839	9.680	9.543	237.048	-0.053	NaN	0.060	28.000	42.380	48.100	49.400	51.220	24.092	7.682	4.621	111.337	0.047	0.172	0.086	72.000	41.015	36.985	42.250	35.555	29.651	1.889	1.889	56.019	0.049	-0.049	-0.098	77.000	35.815	39.585	34.775	39.000	24.493	1.193	-0.148	-3.621	0.041	NaN	0.057	85.000	40.105	42.510	41.535	43.355	25.068	1.661	0.475	11.915	0.029	0.056	NaN	111.000	39.325	44.005	41.535	45.565	23.097	2.705	0.665	15.362	-0.025	NaN	NaN
29	28.000	29.000	40.170	34.450	45.630	25.870	31.486	10.170	10.141	319.309	0.192	0.234	0.035	29.000	38.870	33.995	41.015	22.425	31.100	11.767	10.762	334.705	-0.056	0.064	0.180	29.000	41.860	37.440	45.175	34.190	30.267	4.642	4.637	140.338	0.316	0.277	-0.046	29.000	40.495	41.145	44.395	40.235	26.662	4.005	3.437	91.640	0.007	NaN	NaN	29.000	34.580	41.795	28.275	38.415	22.256	7.154	-1.042	-23.187	-0.025	NaN	NaN	29.000	42.380	46.735	51.220	43.160	24.715	9.536	9.404	232.413	-0.140	-0.205	-0.060	29.000	42.315	48.035	49.465	51.350	24.003	7.881	4.647	111.544	0.026	0.114	-0.086	73.000	41.080	36.660	42.315	35.490	30.029	1.701	1.694	50.873	-0.195	0.092	0.271	78.000	35.685	39.520	34.775	38.935	24.468	1.082	-0.064	-1.572	0.084	0.035	0.145	86.000	40.105	42.640	41.600	43.355	24.980	1.657	0.617	15.417	0.142	0.059	0.056	112.000	39.390	44.135	41.665	45.630	22.970	2.722	0.774	17.770	0.108	0.144	0.126
30	29.000	30.000	40.105	34.450	45.630	25.805	31.499	10.260	10.234	322.376	0.093	0.055	-0.035	30.000	39.000	34.125	41.015	22.425	31.120	11.872	10.773	335.262	0.011	NaN	-0.106	30.000	41.925	37.375	45.305	33.995	30.406	4.780	4.776	145.222	0.139	0.230	0.092	30.000	40.560	41.145	44.395	40.235	26.754	3.941	3.390	90.702	-0.047	NaN	0.063	30.000	34.450	41.665	28.210	38.415	22.337	7.036	-1.039	-23.204	0.003	0.058	0.175	30.000	42.380	46.735	51.090	43.160	24.749	9.415	9.289	229.908	-0.114	-0.120	NaN	30.000	42.380	48.100	49.660	51.480	24.060	8.026	4.738	113.991	0.091	0.232	0.086	74.000	41.210	36.465	42.380	35.490	30.170	1.523	1.504	45.389	-0.190	0.050	0.225	79.000	35.620	39.455	34.645	38.935	24.482	1.105	-0.151	-3.697	-0.087	0.115	0.088	87.000	40.300	42.705	41.600	43.420	24.993	1.484	0.489	12.223	-0.128	0.031	0.202	113.000	39.325	44.070	41.665	45.630	22.620	2.812	0.807	18.252	0.033	NaN	-0.090
31	30.000	31.000	40.170	34.385	45.695	25.675	31.642	10.315	10.287	325.511	0.053	0.145	0.090	31.000	38.935	34.320	41.015	22.360	30.976	12.140	11.021	341.380	0.248	0.064	-0.203	31.000	41.925	37.375	45.565	33.800	30.454	5.102	5.095	155.172	0.319	0.322	NaN	31.000	40.235	41.210	44.395	40.235	26.521	4.273	3.650	96.812	0.260	NaN	-0.331	31.000	34.450	41.665	28.275	38.415	22.389	6.978	-0.989	-22.139	0.050	-0.058	NaN	31.000	42.445	46.670	51.090	43.160	24.873	9.330	9.195	228.712	-0.094	NaN	0.085	31.000	42.315	48.035	49.985	51.610	24.067	8.462	4.943	118.972	0.206	0.349	-0.086	75.000	41.145	36.530	42.380	35.425	30.170	1.657	1.645	49.631	0.141	0.043	-0.092	80.000	35.425	39.390	34.645	38.870	24.474	0.937	-0.028	-0.676	0.123	0.036	0.198	88.000	40.300	42.770	41.665	43.420	24.906	1.512	0.586	14.602	0.097	0.059	0.028	114.000	39.390	44.070	41.665	45.695	22.570	2.796	0.710	16.034	-0.096	0.038	0.053
32	31.000	32.000	40.235	34.385	45.760	25.610	31.733	10.369	10.339	328.092	0.052	0.090	0.035	32.000	39.000	34.255	41.080	22.230	31.120	12.204	11.078	344.735	0.057	0.139	0.075	32.000	41.925	37.375	45.695	33.605	30.502	5.332	5.326	162.468	0.231	0.230	NaN	32.000	40.495	41.145	44.395	40.235	26.798	4.005	3.426	91.818	-0.224	NaN	0.268	32.000	34.515	41.665	28.340	38.415	22.480	6.978	-0.993	-22.329	-0.004	-0.058	-0.058	32.000	42.380	46.735	50.960	43.355	24.818	9.222	9.069	225.074	-0.126	-0.192	-0.084	32.000	42.315	48.035	50.115	51.805	24.099	8.663	4.945	119.162	0.001	0.202	NaN	76.000	41.210	36.595	42.380	35.425	30.121	1.655	1.651	49.737	0.006	NaN	5.629E-18	81.000	35.295	39.325	34.580	38.870	24.452	0.847	-0.038	-0.930	-0.010	0.055	0.145	89.000	40.495	42.900	41.665	43.420	24.917	1.280	0.536	13.351	-0.050	NaN	0.231	115.000	39.195	44.070	41.600	45.695	22.704	2.903	0.729	16.558	0.019	-0.054	-0.162
33	32.000	33.000	40.300	34.320	45.825	25.545	31.772	10.369	10.338	328.452	-0.001	0.090	0.090	33.000	39.000	34.255	41.080	22.165	31.067	12.268	11.125	345.613	0.047	0.064	NaN	33.000	42.055	37.310	45.890	33.410	30.590	5.470	5.467	167.230	0.140	0.276	0.137	33.000	40.560	41.145	44.460	40.235	26.799	4.005	3.433	92.012	0.007	0.063	0.063	33.000	34.450	41.600	28.275	38.350	22.442	6.978	-0.977	-21.928	0.016	0.088	0.088	33.000	42.380	46.735	50.765	43.485	24.783	8.993	8.839	219.049	-0.231	-0.229	NaN	33.000	42.380	48.035	50.180	51.870	24.123	8.692	4.939	119.149	-0.006	0.087	0.058	77.000	41.145	36.530	42.445	35.425	30.219	1.706	1.688	50.996	0.036	0.050	-0.007	82.000	35.425	39.325	34.645	38.870	24.687	0.903	-0.075	-1.855	-0.037	-0.056	-0.112	90.000	40.495	42.900	41.795	43.485	25.009	1.426	0.590	14.762	0.054	0.145	NaN	116.000	39.325	44.070	41.730	45.760	22.455	2.939	0.735	16.507	0.006	0.144	0.106
34	33.000	34.000	40.365	34.255	45.955	25.480	31.915	10.404	10.377	331.189	0.039	0.125	0.090	34.000	39.000	34.255	41.145	22.100	31.120	12.343	11.222	349.213	0.097	0.075	NaN	34.000	41.990	37.310	46.215	33.150	30.594	5.929	5.921	181.160	0.455	0.414	-0.046	34.000	40.430	41.145	44.460	40.235	26.751	4.131	3.516	94.049	0.082	NaN	-0.127	34.000	34.450	41.600	28.275	38.415	22.495	6.948	-1.018	-22.904	-0.041	-0.030	NaN	34.000	42.445	46.735	50.570	43.550	24.873	8.727	8.582	213.460	-0.257	-0.205	0.061	34.000	42.250	48.035	50.115	51.870	24.042	8.750	4.960	119.246	0.021	-0.058	-0.117	78.000	42.315	35.425	42.510	35.425	31.821	0.195	0.129	4.107	-1.558	0.065	1.170	83.000	35.425	39.390	34.580	38.805	24.596	1.028	-0.005	-0.131	0.070	0.090	-0.037	91.000	40.560	42.965	41.795	43.420	25.015	1.316	0.632	15.797	0.041	-0.022	0.083	117.000	39.195	44.070	41.860	45.825	22.307	3.191	0.874	19.486	0.138	0.144	-0.109
35	34.000	35.000	40.235	34.320	46.085	25.350	31.733	10.709	10.689	339.208	0.312	0.180	-0.125	35.000	39.000	34.125	41.210	21.970	31.174	12.354	11.264	351.152	0.043	0.140	0.128	35.000	42.120	37.115	46.410	32.890	30.777	6.021	6.013	185.076	0.092	0.321	0.229	35.000	40.560	41.080	44.460	40.235	26.844	3.990	3.384	90.854	-0.131	NaN	0.141	35.000	34.450	41.600	28.340	38.480	22.442	6.861	-1.044	-23.440	-0.026	-0.087	NaN	35.000	42.380	46.735	50.440	43.615	24.783	8.643	8.494	210.506	-0.088	-0.145	-0.061	35.000	42.315	48.035	50.180	51.870	24.067	8.750	4.986	120.007	0.026	0.058	0.058	79.000	42.380	35.295	42.575	35.295	31.962	0.195	0.129	4.119	-1.707E-4	0.065	0.065	84.000	35.360	39.390	34.580	38.870	24.596	0.937	-0.021	-0.524	-0.016	-0.036	0.054	92.000	40.560	42.965	41.860	43.420	25.058	1.377	0.678	16.993	0.047	0.061	NaN	118.000	39.455	44.135	41.860	45.825	22.138	2.939	0.744	16.478	-0.129	NaN	0.250
36	35.000	36.000	40.365	34.125	46.020	25.545	31.915	10.276	10.259	327.433	-0.430	-0.199	0.234	36.000	39.000	34.060	41.275	21.905	31.174	12.366	11.301	352.302	0.037	0.076	0.064	36.000	42.120	37.050	46.605	32.695	30.777	6.251	6.241	192.081	0.228	0.276	0.045	36.000	40.495	41.015	44.590	40.170	26.798	4.181	3.520	94.340	0.136	0.140	-0.051	36.000	34.320	41.470	28.405	38.480	22.419	6.628	-0.994	-22.283	0.051	-0.058	0.175	36.000	42.380	46.735	50.310	43.680	24.749	8.498	8.353	206.721	-0.141	-0.145	NaN	36.000	42.315	48.035	50.115	51.870	24.035	8.692	4.947	118.892	-0.040	-0.058	NaN	80.000	42.445	35.295	42.640	35.230	32.053	0.206	0.178	5.695	0.049	0.082	0.062	85.000	35.360	39.325	34.645	38.870	24.392	0.847	-0.023	-0.562	-0.002	-0.055	0.035	93.000	40.560	42.965	41.925	43.420	24.930	1.439	0.734	18.307	0.056	0.062	NaN	119.000	38.935	44.005	41.860	45.825	21.652	3.445	1.007	21.814	0.263	NaN	-0.510
37	36.000	37.000	40.365	34.060	45.500	26.000	31.967	9.557	9.533	304.737	-0.727	-0.663	0.055	37.000	39.000	34.125	41.210	21.775	31.120	12.546	11.419	355.356	0.118	0.117	-0.064	37.000	42.055	37.180	46.800	32.500	30.638	6.665	6.657	203.945	0.416	0.276	-0.138	37.000	40.690	41.015	44.655	40.170	26.938	4.054	3.438	92.620	-0.082	0.064	0.191	37.000	34.450	41.600	28.405	38.480	22.389	6.803	-1.018	-22.790	-0.024	NaN	-0.175	37.000	42.380	46.735	50.180	43.745	24.749	8.353	8.208	203.138	-0.145	-0.145	NaN	37.000	42.315	48.035	50.245	51.935	24.035	8.837	5.029	120.860	0.082	0.145	NaN	81.000	42.380	35.425	42.770	35.295	31.913	0.411	0.356	11.348	0.178	0.103	-0.103	86.000	35.425	39.455	34.710	38.805	24.321	0.966	0.134	3.249	0.157	-0.004	-0.136	94.000	40.560	42.965	41.990	43.420	25.064	1.501	0.781	19.566	0.046	0.062	NaN	120.000	39.260	44.005	41.860	45.825	22.300	3.174	0.769	17.154	-0.238	NaN	0.266
38	37.000	38.000	40.430	34.060	45.435	26.195	32.006	9.322	9.298	297.579	-0.235	-0.199	0.035	38.000	38.935	33.995	41.275	21.710	31.190	12.506	11.460	357.435	0.041	0.076	0.116	38.000	41.990	37.180	46.930	32.240	30.594	6.986	6.980	213.532	0.323	0.276	-0.046	38.000	40.625	41.015	44.655	40.170	26.891	4.118	3.481	93.618	0.043	NaN	-0.064	38.000	34.450	41.600	28.405	38.480	22.389	6.803	-1.018	-22.790	NaN	NaN	NaN	38.000	42.380	46.670	50.180	43.680	24.783	8.353	8.204	203.332	-0.003	0.023	0.023	38.000	42.250	47.970	50.375	52.065	24.010	9.099	5.076	121.879	0.048	0.175	-0.087	82.000	42.250	35.425	42.835	35.360	31.974	0.589	0.433	13.850	0.078	0.057	-0.129	87.000	35.295	39.390	34.645	38.870	24.194	0.832	0.065	1.580	-0.068	0.010	0.142	95.000	40.495	42.900	42.055	43.420	25.101	1.644	0.828	20.787	0.048	0.062	-0.082	121.000	39.000	44.005	41.990	45.890	22.105	3.535	0.995	21.991	0.226	0.145	-0.220
39	38.000	39.000	40.430	34.060	45.370	26.325	32.006	9.178	9.154	293.000	-0.143	-0.145	NaN	39.000	39.000	34.060	41.340	21.580	31.174	12.697	11.606	361.795	0.146	0.140	-0.052	39.000	42.055	37.115	47.125	32.045	30.686	7.170	7.163	219.810	0.184	0.276	0.092	39.000	40.560	41.080	44.720	40.170	26.799	4.258	3.620	97.014	0.139	0.063	-0.077	39.000	34.515	41.600	28.405	38.415	22.427	6.890	-1.019	-22.861	-0.001	0.030	-0.058	39.000	42.380	46.735	50.245	43.745	24.749	8.414	8.263	204.507	0.059	0.038	-0.023	39.000	42.250	47.970	50.375	52.065	24.010	9.099	5.076	121.879	NaN	NaN	NaN	83.000	42.185	35.490	42.965	35.425	31.839	0.783	0.560	17.838	0.127	0.124	-0.070	88.000	35.360	39.455	34.645	38.870	24.123	0.924	0.078	1.876	0.012	NaN	-0.091	96.000	40.755	42.900	42.185	43.420	25.297	1.522	0.740	18.708	-0.089	0.122	0.244	NaN	NaN	NaN	NaN	NaN	NaN	NaN	NaN	NaN	NaN	NaN	NaN
40	39.000	40.000	40.430	33.995	45.305	26.455	32.058	8.979	8.960	287.241	-0.195	-0.144	0.055	40.000	38.935	34.190	41.340	21.710	31.030	12.710	11.639	361.166	0.034	-0.128	-0.140	40.000	41.925	37.180	47.320	31.850	30.550	7.584	7.574	231.382	0.411	0.276	-0.138	40.000	40.560	41.080	44.720	40.170	26.799	4.258	3.620	97.014	NaN	NaN	NaN	40.000	34.515	41.600	28.405	38.480	22.427	6.861	-1.072	-24.040	-0.053	-0.030	NaN	40.000	42.380	46.735	50.115	43.745	24.749	8.293	8.153	201.769	-0.111	-0.121	NaN	40.000	42.315	47.970	50.310	52.065	24.067	8.983	4.973	119.677	-0.103	-0.058	0.058	84.000	42.120	35.555	42.965	35.490	31.790	0.847	0.604	19.190	0.043	-0.005	-0.070	89.000	35.360	39.325	34.645	38.870	24.194	0.847	-0.025	-0.604	-0.103	NaN	0.070	97.000	40.495	42.835	42.185	43.355	25.101	1.768	0.926	23.238	0.186	-0.019	-0.268	NaN	NaN	NaN	NaN	NaN	NaN	NaN	NaN	NaN	NaN	NaN	NaN
41	40.000	41.000	40.495	33.800	45.175	26.520	32.149	8.655	8.635	277.599	-0.325	-0.125	0.199	41.000	38.935	34.190	41.275	21.645	30.923	12.761	11.644	360.050	0.004	0.052	NaN	41.000	41.925	37.180	47.515	31.655	30.454	7.860	7.851	239.080	0.277	0.276	NaN	41.000	40.560	41.145	44.655	40.105	26.664	4.225	3.675	97.986	0.055	-0.047	-0.016	41.000	34.450	41.665	28.470	38.480	22.232	6.775	-0.962	-21.379	0.110	-0.057	0.027	41.000	42.510	46.670	50.180	43.745	24.826	8.209	8.071	200.362	-0.082	0.061	0.145	41.000	42.315	47.970	50.180	52.065	24.003	8.867	4.894	117.480	-0.078	-0.115	NaN	NaN	NaN	NaN	NaN	NaN	NaN	NaN	NaN	NaN	NaN	NaN	NaN	90.000	35.490	39.325	34.580	38.805	24.358	1.048	-0.086	-2.096	-0.061	0.089	-0.113	98.000	40.560	42.770	42.120	43.355	25.156	1.666	0.793	19.950	-0.133	-0.061	0.038	NaN	NaN	NaN	NaN	NaN	NaN	NaN	NaN	NaN	NaN	NaN	NaN
42	41.000	42.000	40.560	33.670	45.110	26.585	32.240	8.420	8.400	270.831	-0.234	-0.090	0.145	42.000	38.935	34.125	41.275	21.710	30.923	12.634	11.537	356.746	-0.107	-0.064	0.064	42.000	41.860	37.245	47.645	31.525	30.314	8.135	8.127	246.351	0.276	0.184	-0.092	42.000	40.625	41.080	44.720	40.105	26.711	4.209	3.633	97.052	-0.041	0.063	0.078	42.000	34.450	41.665	28.470	38.415	22.179	6.806	-0.921	-20.424	0.041	0.031	NaN	42.000	42.380	46.735	50.115	43.745	24.647	8.293	8.163	201.186	0.092	-0.061	-0.145	42.000	42.315	47.905	50.115	52.000	24.003	8.810	4.837	116.116	-0.057	-0.088	-0.030	NaN	NaN	NaN	NaN	NaN	NaN	NaN	NaN	NaN	NaN	NaN	NaN	91.000	35.555	39.455	34.645	38.805	24.288	1.118	0.015	0.372	0.101	-0.053	-0.128	99.000	40.560	42.770	42.185	43.355	25.199	1.727	0.839	21.146	0.046	0.061	NaN	NaN	NaN	NaN	NaN	NaN	NaN	NaN	NaN	NaN	NaN	NaN	NaN
43	42.000	43.000	40.560	33.670	44.980	26.780	32.240	8.186	8.166	263.285	-0.234	-0.234	NaN	43.000	38.935	34.190	41.210	21.840	30.869	12.558	11.440	353.147	-0.097	-0.140	-0.064	43.000	41.925	37.245	47.710	31.395	30.358	8.227	8.223	249.626	0.096	0.138	0.046	43.000	40.495	41.080	44.785	40.105	26.617	4.399	3.767	100.259	0.133	0.063	-0.127	43.000	34.255	41.600	28.405	38.415	22.117	6.661	-0.838	-18.531	0.083	0.057	0.202	43.000	42.445	46.670	50.245	43.680	24.737	8.353	8.217	203.256	0.054	0.145	0.084	43.000	42.250	47.905	50.050	51.870	23.947	8.750	4.891	117.121	0.053	-0.117	-0.058	NaN	NaN	NaN	NaN	NaN	NaN	NaN	NaN	NaN	NaN	NaN	NaN	92.000	35.685	39.455	34.515	38.805	24.415	1.338	-0.137	-3.338	-0.152	0.114	-0.114	100.000	40.430	42.705	42.185	43.355	25.101	1.872	0.889	22.308	0.050	NaN	-0.144	NaN	NaN	NaN	NaN	NaN	NaN	NaN	NaN	NaN	NaN	NaN	NaN
44	43.000	44.000	40.625	33.605	44.915	26.975	32.279	7.897	7.879	254.337	-0.287	-0.199	0.090	44.000	39.000	34.125	41.275	21.840	30.906	12.494	11.378	351.647	-0.062	0.012	0.076	44.000	41.990	37.115	47.840	31.265	30.450	8.273	8.267	251.726	0.044	0.184	0.138	44.000	40.560	41.080	44.850	40.170	26.619	4.385	3.730	99.279	-0.037	0.050	0.064	44.000	34.320	41.730	28.470	38.480	21.997	6.692	-0.835	-18.379	0.002	-0.088	-0.120	44.000	42.380	46.670	50.245	43.680	24.647	8.414	8.274	203.924	0.057	NaN	-0.061	44.000	42.380	48.035	50.050	51.870	23.967	8.575	4.909	117.658	0.018	NaN	0.174	NaN	NaN	NaN	NaN	NaN	NaN	NaN	NaN	NaN	NaN	NaN	NaN	93.000	35.555	39.455	34.450	38.740	24.181	1.316	-0.046	-1.124	0.090	0.090	0.109	101.000	40.495	42.770	42.250	43.420	24.930	1.872	0.902	22.477	0.013	0.084	0.084	NaN	NaN	NaN	NaN	NaN	NaN	NaN	NaN	NaN	NaN	NaN	NaN
45	44.000	45.000	40.560	33.670	44.850	27.105	32.240	7.842	7.828	252.376	-0.051	-0.144	-0.090	45.000	39.000	34.060	41.275	21.775	31.013	12.494	11.390	353.244	0.012	0.064	0.064	45.000	42.315	36.790	47.905	31.135	30.957	7.952	7.947	246.013	-0.320	0.138	0.460	45.000	40.495	41.080	44.980	40.105	26.617	4.590	3.907	103.998	0.178	0.141	-0.064	45.000	34.320	41.730	28.405	38.415	22.050	6.781	-0.810	-17.855	0.026	0.088	NaN	45.000	42.380	46.670	50.180	43.680	24.681	8.353	8.215	202.749	-0.059	-0.061	NaN	45.000	42.250	47.970	49.920	51.805	23.915	8.575	4.857	116.162	-0.052	-0.145	-0.145	NaN	NaN	NaN	NaN	NaN	NaN	NaN	NaN	NaN	NaN	NaN	NaN	94.000	35.555	39.390	34.320	38.675	24.378	1.427	-0.118	-2.865	-0.071	0.145	0.033	102.000	40.495	42.705	42.250	43.420	24.937	1.895	0.865	21.577	-0.036	NaN	-0.025	NaN	NaN	NaN	NaN	NaN	NaN	NaN	NaN	NaN	NaN	NaN	NaN
46	45.000	46.000	40.430	33.800	44.850	27.235	32.111	7.914	7.906	253.876	0.078	-0.108	-0.180	46.000	39.000	34.125	41.210	21.775	31.013	12.546	11.406	353.751	0.016	-0.011	-0.064	46.000	41.990	37.115	48.035	30.940	30.546	8.641	8.637	263.826	0.690	0.230	-0.460	46.000	40.625	41.015	44.980	40.105	26.801	4.449	3.768	100.990	-0.139	NaN	0.141	46.000	34.385	41.730	28.470	38.415	22.141	6.781	-0.814	-18.024	-0.004	-0.057	-0.057	46.000	42.445	46.670	50.180	43.680	24.771	8.293	8.158	202.078	-0.057	NaN	0.061	46.000	42.315	47.970	49.790	51.740	24.003	8.372	4.711	113.074	-0.147	-0.145	0.058	NaN	NaN	NaN	NaN	NaN	NaN	NaN	NaN	NaN	NaN	NaN	NaN	95.000	35.620	39.520	34.255	38.610	24.362	1.641	-0.038	-0.917	0.080	0.090	-0.126	103.000	40.235	42.640	42.250	43.420	24.606	2.161	1.011	24.885	0.146	NaN	-0.266	NaN	NaN	NaN	NaN	NaN	NaN	NaN	NaN	NaN	NaN	NaN	NaN
47	46.000	47.000	40.430	33.865	44.785	27.365	32.111	7.824	7.815	250.957	-0.091	-0.144	-0.054	47.000	39.000	34.190	41.210	21.710	31.013	12.674	11.513	357.063	0.107	0.064	-0.064	47.000	42.055	37.050	48.035	30.875	30.686	8.596	8.593	263.674	-0.044	0.047	0.092	47.000	40.755	41.015	45.045	40.105	26.939	4.385	3.725	100.352	-0.043	0.064	0.127	47.000	34.515	41.795	28.470	38.480	22.218	6.894	-0.923	-20.508	-0.109	-0.031	-0.145	47.000	42.380	46.735	50.180	43.680	24.715	8.377	8.245	203.784	0.087	NaN	-0.084	47.000	42.315	48.035	49.725	51.675	24.003	8.256	4.717	113.222	0.006	-0.087	0.029	NaN	NaN	NaN	NaN	NaN	NaN	NaN	NaN	NaN	NaN	NaN	NaN	96.000	35.555	39.455	34.125	38.610	24.378	1.661	-0.122	-2.974	-0.084	0.112	0.089	104.000	40.040	42.640	42.185	43.355	24.642	2.261	1.141	28.117	0.130	-0.082	-0.185	NaN	NaN	NaN	NaN	NaN	NaN	NaN	NaN	NaN	NaN	NaN	NaN
48	47.000	48.000	40.365	34.060	44.785	27.495	31.915	7.914	7.906	252.309	0.090	-0.108	-0.198	48.000	39.000	34.190	41.210	21.710	31.013	12.674	11.513	357.063	NaN	NaN	NaN	48.000	42.120	37.050	47.970	30.745	30.730	8.601	8.601	264.299	0.008	0.051	0.044	48.000	40.755	40.950	45.175	40.040	26.984	4.513	3.815	102.938	0.090	0.140	0.013	48.000	34.515	41.795	28.405	38.415	22.218	6.983	-0.909	-20.204	0.014	0.088	NaN	48.000	42.380	46.735	50.245	43.680	24.715	8.437	8.301	205.153	0.055	0.061	NaN	48.000	42.315	48.035	49.530	51.545	24.003	8.023	4.609	110.640	-0.108	-0.232	NaN	NaN	NaN	NaN	NaN	NaN	NaN	NaN	NaN	NaN	NaN	NaN	NaN	97.000	35.620	39.455	34.125	38.480	24.362	1.785	-0.059	-1.437	0.063	0.071	-0.054	105.000	40.235	42.575	41.990	43.355	24.881	1.921	0.814	20.242	-0.327	-0.178	0.152	NaN	NaN	NaN	NaN	NaN	NaN	NaN	NaN	NaN	NaN	NaN	NaN
49	48.000	49.000	40.300	34.060	44.720	27.690	31.981	7.753	7.750	247.855	-0.156	-0.197	-0.037	49.000	39.000	34.190	41.145	21.775	31.120	12.599	11.435	355.872	-0.078	-0.075	NaN	49.000	41.990	37.245	47.970	30.680	30.594	8.880	8.880	271.680	0.279	0.048	-0.232	49.000	40.690	40.885	45.240	39.975	27.073	4.640	3.891	105.346	0.076	0.076	-0.051	49.000	34.450	41.730	28.470	38.415	22.337	6.837	-0.833	-18.615	0.076	-0.057	0.088	49.000	42.380	46.735	50.180	43.680	24.783	8.377	8.239	204.182	-0.062	-0.061	NaN	49.000	42.315	47.970	49.400	51.415	24.099	7.878	4.481	107.995	-0.128	-0.174	-0.028	NaN	NaN	NaN	NaN	NaN	NaN	NaN	NaN	NaN	NaN	NaN	NaN	98.000	35.490	39.455	33.930	38.415	24.218	1.875	-0.045	-1.082	0.014	0.198	0.108	106.000	40.105	42.510	41.665	43.290	24.875	1.744	0.660	16.427	-0.153	-0.320	-0.145	NaN	NaN	NaN	NaN	NaN	NaN	NaN	NaN	NaN	NaN	NaN	NaN
50	49.000	50.000	40.300	34.255	44.590	27.820	31.772	7.734	7.723	245.388	-0.027	-0.180	-0.162	50.000	38.935	34.125	41.210	21.775	31.083	12.558	11.465	356.358	0.029	0.012	0.052	50.000	42.055	37.180	47.970	30.550	30.638	8.885	8.884	272.187	0.004	0.097	0.092	50.000	40.950	40.885	45.175	40.040	27.215	4.309	3.633	98.865	-0.258	-0.076	0.255	50.000	34.580	41.795	28.405	38.415	22.309	7.040	-0.952	-21.243	-0.119	0.057	-0.145	50.000	42.380	46.670	50.115	43.680	24.783	8.293	8.149	201.963	-0.090	-0.061	0.023	50.000	42.315	47.970	49.270	51.350	24.067	7.733	4.415	106.255	-0.066	-0.145	NaN	NaN	NaN	NaN	NaN	NaN	NaN	NaN	NaN	NaN	NaN	NaN	NaN	99.000	35.555	39.520	33.865	38.350	24.256	2.055	-0.017	-0.423	0.027	0.090	-0.090	107.000	39.910	42.380	41.535	43.225	24.674	1.832	0.648	15.996	-0.012	-0.145	-0.233	NaN	NaN	NaN	NaN	NaN	NaN	NaN	NaN	NaN	NaN	NaN	NaN
51	50.000	51.000	40.300	34.190	44.525	27.885	31.915	7.590	7.581	241.936	-0.143	-0.090	0.054	51.000	38.935	34.255	41.145	21.840	31.067	12.610	11.466	356.214	0.001	-0.075	-0.128	51.000	42.120	37.115	48.035	30.420	30.821	8.934	8.932	275.293	0.048	0.140	0.092	51.000	41.015	40.885	45.175	40.040	27.354	4.245	3.589	98.185	-0.043	NaN	0.064	51.000	34.450	41.665	28.405	38.415	22.427	6.863	-0.929	-20.825	0.024	NaN	0.176	51.000	42.315	46.800	50.180	43.680	24.749	8.461	8.331	206.197	0.182	0.060	-0.108	51.000	42.315	47.970	49.010	51.155	24.155	7.414	4.277	103.318	-0.138	-0.319	NaN	NaN	NaN	NaN	NaN	NaN	NaN	NaN	NaN	NaN	NaN	NaN	NaN	100.000	35.490	39.455	33.735	38.285	24.218	2.109	-0.050	-1.217	-0.033	0.144	0.090	108.000	39.910	42.380	41.405	43.160	24.718	1.686	0.592	14.623	-0.057	-0.145	NaN	NaN	NaN	NaN	NaN	NaN	NaN	NaN	NaN	NaN	NaN	NaN	NaN
52	51.000	52.000	40.235	34.320	44.460	28.015	31.786	7.590	7.581	240.977	7.511E-4	-0.144	-0.144	52.000	38.870	34.320	41.145	21.840	30.993	12.686	11.575	358.728	0.108	NaN	-0.076	52.000	41.990	37.180	48.100	30.290	30.690	9.209	9.208	282.593	0.276	0.140	-0.135	52.000	41.275	40.820	45.045	40.040	27.585	3.850	3.266	90.085	-0.324	-0.127	0.268	52.000	34.385	41.600	28.405	38.415	22.457	6.775	-0.889	-19.955	0.040	NaN	0.088	52.000	42.380	46.735	50.180	43.680	24.818	8.377	8.235	204.380	-0.096	NaN	0.084	52.000	42.315	47.970	48.880	51.090	24.131	7.269	4.174	100.720	-0.103	-0.145	NaN	NaN	NaN	NaN	NaN	NaN	NaN	NaN	NaN	NaN	NaN	NaN	NaN	101.000	35.490	39.455	33.605	38.220	24.021	2.254	-0.077	-1.855	-0.027	0.144	NaN	109.000	39.910	42.380	41.275	43.095	24.582	1.541	0.541	13.309	-0.050	-0.145	NaN	NaN	NaN	NaN	NaN	NaN	NaN	NaN	NaN	NaN	NaN	NaN	NaN
53	52.000	53.000	40.300	34.320	44.460	28.080	31.863	7.500	7.489	238.628	-0.092	-0.054	0.036	53.000	38.935	34.255	41.145	21.775	31.120	12.674	11.526	358.686	-0.049	0.064	0.075	53.000	41.925	37.180	48.165	30.290	30.690	9.296	9.296	285.280	0.088	0.044	-0.044	53.000	41.535	40.755	45.045	40.105	27.865	3.570	3.000	83.604	-0.265	-0.012	0.267	53.000	34.385	41.600	28.470	38.415	22.495	6.718	-0.866	-19.490	0.022	-0.057	NaN	53.000	42.315	46.865	50.310	43.615	24.749	8.630	8.510	210.625	0.275	0.145	-0.109	53.000	42.380	48.035	48.815	51.025	24.212	7.096	4.154	100.568	-0.020	-0.086	0.086	NaN	NaN	NaN	NaN	NaN	NaN	NaN	NaN	NaN	NaN	NaN	NaN	102.000	35.490	39.455	33.540	38.155	23.953	2.344	-0.074	-1.775	0.003	0.090	NaN	110.000	39.910	42.445	41.145	43.030	24.718	1.367	0.528	13.059	-0.013	-0.145	0.028	NaN	NaN	NaN	NaN	NaN	NaN	NaN	NaN	NaN	NaN	NaN	NaN
54	53.000	54.000	40.300	34.255	44.330	28.210	31.863	7.265	7.255	231.171	-0.234	-0.180	0.054	54.000	38.935	34.255	41.210	21.775	31.067	12.686	11.557	359.024	0.031	0.012	NaN	54.000	42.120	36.920	48.230	30.290	30.965	9.016	9.016	279.180	-0.280	0.044	0.323	54.000	41.535	40.755	44.915	40.170	27.821	3.430	2.864	79.688	-0.136	-0.139	NaN	54.000	34.515	41.665	28.405	38.415	22.466	6.921	-0.983	-22.080	-0.116	0.057	-0.145	54.000	42.315	46.865	50.310	43.615	24.715	8.630	8.514	210.413	0.003	NaN	NaN	54.000	42.315	47.970	48.750	50.960	24.155	7.096	4.146	100.149	-0.008	-0.086	-0.086	NaN	NaN	NaN	NaN	NaN	NaN	NaN	NaN	NaN	NaN	NaN	NaN	103.000	35.555	39.520	33.345	38.025	23.742	2.668	-0.083	-1.977	-0.009	0.234	-0.090	111.000	39.845	42.380	41.080	42.965	24.564	1.367	0.512	12.582	-0.016	-0.087	-0.087	NaN	NaN	NaN	NaN	NaN	NaN	NaN	NaN	NaN	NaN	NaN	NaN
55	54.000	55.000	40.365	33.995	44.265	28.275	32.058	6.923	6.917	221.762	-0.338	-0.090	0.251	55.000	38.935	34.255	41.210	21.645	31.013	12.814	11.657	361.525	0.101	0.128	NaN	55.000	42.185	36.855	48.230	30.355	31.009	8.876	8.876	275.242	-0.140	-0.048	0.092	55.000	41.730	40.690	44.720	40.235	27.963	3.024	2.499	69.886	-0.365	-0.203	0.203	55.000	34.515	41.665	28.405	38.415	22.413	6.921	-0.995	-22.291	-0.012	NaN	NaN	55.000	42.250	46.865	50.310	43.550	24.626	8.715	8.604	211.884	0.091	0.025	-0.060	55.000	42.315	47.970	48.555	50.830	24.123	6.864	4.053	97.767	-0.093	-0.231	NaN	NaN	NaN	NaN	NaN	NaN	NaN	NaN	NaN	NaN	NaN	NaN	NaN	104.000	35.555	39.455	33.215	37.960	23.976	2.777	-0.158	-3.798	-0.075	0.145	0.035	112.000	39.845	42.380	40.950	42.965	24.473	1.250	0.417	10.199	-0.095	-0.115	NaN	NaN	NaN	NaN	NaN	NaN	NaN	NaN	NaN	NaN	NaN	NaN	NaN
56	55.000	56.000	40.300	34.125	44.200	28.340	31.929	6.977	6.970	222.552	0.053	-0.090	-0.144	56.000	38.935	34.320	41.210	21.580	30.976	12.942	11.773	364.689	0.116	0.064	-0.064	56.000	42.185	36.920	48.295	30.290	30.965	9.016	9.016	279.180	0.140	0.092	-0.048	56.000	41.600	40.690	44.525	40.235	27.865	2.960	2.441	68.014	-0.058	-0.193	-0.128	56.000	34.450	41.600	28.470	38.415	22.442	6.775	-0.916	-20.550	0.079	-0.057	0.088	56.000	42.315	46.735	50.310	43.615	24.728	8.582	8.436	208.618	-0.168	-0.024	0.108	56.000	42.315	47.905	48.490	50.765	24.131	6.805	3.963	95.624	-0.090	-0.086	-0.027	NaN	NaN	NaN	NaN	NaN	NaN	NaN	NaN	NaN	NaN	NaN	NaN	105.000	35.620	39.455	33.085	37.895	24.052	2.977	-0.233	-5.602	-0.075	0.145	-0.055	113.000	39.780	42.380	40.820	42.900	24.070	1.163	0.424	10.208	0.007	-0.145	-0.058	NaN	NaN	NaN	NaN	NaN	NaN	NaN	NaN	NaN	NaN	NaN	NaN
57	56.000	57.000	40.300	34.190	44.135	28.470	31.915	6.887	6.878	219.527	-0.092	-0.144	-0.054	57.000	39.000	34.255	41.210	21.580	31.104	12.866	11.671	362.999	-0.103	NaN	0.075	57.000	42.120	36.985	48.295	30.225	30.917	9.156	9.156	283.071	0.140	0.048	-0.092	57.000	41.470	40.755	44.395	40.300	27.773	2.960	2.441	67.794	1.646E-4	-0.138	-0.138	57.000	34.255	41.340	28.470	38.480	22.578	6.453	-0.993	-22.409	-0.077	-0.029	0.290	57.000	42.315	46.800	50.310	43.615	24.749	8.606	8.476	209.780	0.040	NaN	-0.024	57.000	42.315	47.905	48.425	50.765	24.187	6.746	3.914	94.657	-0.049	-0.059	NaN	NaN	NaN	NaN	NaN	NaN	NaN	NaN	NaN	NaN	NaN	NaN	NaN	106.000	35.620	39.520	33.020	37.765	24.038	3.137	-0.125	-3.017	0.107	0.127	-0.036	114.000	39.845	42.380	40.755	42.900	24.022	1.048	0.326	7.825	-0.098	-0.056	0.056	NaN	NaN	NaN	NaN	NaN	NaN	NaN	NaN	NaN	NaN	NaN	NaN
58	57.000	58.000	40.300	34.060	44.135	28.535	31.824	6.726	6.722	213.924	-0.156	-0.053	0.107	58.000	39.000	34.385	41.210	21.580	30.800	12.994	11.754	362.015	0.083	NaN	-0.128	NaN	NaN	NaN	NaN	NaN	NaN	NaN	NaN	NaN	NaN	NaN	NaN	58.000	41.730	40.690	44.330	40.300	27.827	2.629	2.172	60.443	-0.269	-0.064	0.267	58.000	33.800	40.820	28.535	38.480	22.553	5.762	-0.964	-21.750	0.028	-0.059	0.627	58.000	42.315	46.800	50.310	43.615	24.592	8.606	8.484	208.639	0.008	NaN	NaN	58.000	42.315	47.905	48.360	50.765	24.035	6.687	3.888	93.453	-0.025	-0.059	NaN	NaN	NaN	NaN	NaN	NaN	NaN	NaN	NaN	NaN	NaN	NaN	NaN	107.000	35.620	39.455	32.890	37.635	23.961	3.281	-0.136	-3.253	-0.010	0.180	0.036	115.000	39.845	42.380	40.690	42.835	24.324	0.960	0.302	7.339	-0.024	-0.088	NaN	NaN	NaN	NaN	NaN	NaN	NaN	NaN	NaN	NaN	NaN	NaN	NaN
59	58.000	59.000	40.235	34.125	44.070	28.665	31.824	6.672	6.670	212.264	-0.052	-0.144	-0.091	59.000	38.935	34.385	41.210	21.645	30.853	12.942	11.744	362.353	-0.009	-0.064	-0.011	NaN	NaN	NaN	NaN	NaN	NaN	NaN	NaN	NaN	NaN	NaN	NaN	59.000	41.340	40.755	44.395	40.235	27.590	3.099	2.581	71.195	0.408	0.075	-0.395	59.000	33.865	40.820	28.470	38.480	22.679	5.881	-1.055	-23.922	-0.090	0.060	-0.060	59.000	42.315	46.800	50.310	43.615	24.681	8.606	8.483	209.366	-0.001	NaN	NaN	59.000	42.315	47.905	48.230	50.635	24.123	6.515	3.832	92.451	-0.056	-0.173	NaN	NaN	NaN	NaN	NaN	NaN	NaN	NaN	NaN	NaN	NaN	NaN	NaN	108.000	35.685	39.520	32.760	37.505	24.000	3.552	-0.101	-2.417	0.035	0.181	-0.090	116.000	39.650	42.250	40.625	42.835	23.912	1.137	0.310	7.402	0.008	-0.056	-0.234	NaN	NaN	NaN	NaN	NaN	NaN	NaN	NaN	NaN	NaN	NaN	NaN
60	59.000	60.000	40.365	33.995	44.005	28.730	31.902	6.401	6.396	204.055	-0.274	-0.090	0.181	60.000	39.000	34.320	41.210	21.775	30.837	12.738	11.532	355.601	-0.213	-0.128	0.075	NaN	NaN	NaN	NaN	NaN	NaN	NaN	NaN	NaN	NaN	NaN	NaN	60.000	41.730	40.755	44.395	40.235	27.787	2.715	2.315	64.334	-0.265	NaN	0.383	60.000	33.800	40.885	28.470	38.480	22.481	5.847	-0.979	-22.000	0.076	NaN	0.033	60.000	42.315	46.800	50.375	43.615	24.614	8.666	8.545	210.321	0.062	0.060	NaN	60.000	42.315	47.905	48.230	50.635	24.060	6.515	3.857	92.806	0.025	NaN	NaN	NaN	NaN	NaN	NaN	NaN	NaN	NaN	NaN	NaN	NaN	NaN	NaN	109.000	35.620	39.455	32.630	37.440	23.871	3.606	-0.129	-3.080	-0.028	0.144	0.090	117.000	39.715	42.380	40.495	42.770	23.823	0.872	0.304	7.250	-0.005	-0.145	0.116	NaN	NaN	NaN	NaN	NaN	NaN	NaN	NaN	NaN	NaN	NaN	NaN
61	60.000	61.000	40.625	33.735	43.940	28.860	32.162	5.895	5.888	189.377	-0.508	-0.144	0.361	61.000	39.065	33.995	41.210	21.775	31.034	12.407	11.238	348.774	-0.293	NaN	0.331	NaN	NaN	NaN	NaN	NaN	NaN	NaN	NaN	NaN	NaN	NaN	NaN	61.000	41.535	40.755	44.395	40.235	27.555	2.907	2.457	67.701	0.142	NaN	-0.192	61.000	34.060	41.080	28.470	38.480	22.360	6.165	-1.070	-23.922	-0.091	NaN	-0.318	61.000	42.315	46.800	50.375	43.615	24.547	8.666	8.551	209.906	0.006	NaN	NaN	61.000	42.380	47.970	48.165	50.635	24.024	6.369	3.818	91.721	-0.039	-0.059	0.086	NaN	NaN	NaN	NaN	NaN	NaN	NaN	NaN	NaN	NaN	NaN	NaN	110.000	35.685	39.520	32.500	37.310	24.052	3.877	-0.091	-2.180	0.038	0.181	-0.090	118.000	39.715	42.315	40.365	42.705	23.544	0.758	0.207	4.867	-0.098	-0.145	-0.033	NaN	NaN	NaN	NaN	NaN	NaN	NaN	NaN	NaN	NaN	NaN	NaN
62	61.000	62.000	40.625	33.605	43.875	28.860	32.214	5.751	5.746	185.089	-0.143	-0.037	0.107	62.000	39.065	33.930	41.145	21.905	31.034	12.204	11.041	342.660	-0.197	-0.139	0.064	NaN	NaN	NaN	NaN	NaN	NaN	NaN	NaN	NaN	NaN	NaN	NaN	62.000	41.470	40.755	44.395	40.235	27.463	2.971	2.505	68.796	0.048	NaN	-0.064	62.000	34.060	41.015	28.470	38.480	22.360	6.138	-1.123	-25.113	-0.053	NaN	0.027	62.000	42.250	46.865	50.440	43.550	24.424	8.835	8.734	213.320	0.183	0.085	-0.085	62.000	42.315	47.970	48.165	50.570	23.936	6.402	3.912	93.626	0.094	-0.026	-0.059	NaN	NaN	NaN	NaN	NaN	NaN	NaN	NaN	NaN	NaN	NaN	NaN	111.000	35.620	39.455	32.370	37.180	23.968	3.967	-0.020	-0.486	0.070	0.181	0.091	119.000	39.715	42.380	40.235	42.640	23.319	0.581	0.204	4.766	-0.002	-0.145	0.029	NaN	NaN	NaN	NaN	NaN	NaN	NaN	NaN	NaN	NaN	NaN	NaN
63	62.000	63.000	40.690	33.540	43.875	28.925	32.253	5.607	5.602	180.691	-0.143	-0.053	0.090	63.000	39.130	33.995	41.080	22.100	30.965	12.054	10.839	335.621	-0.203	-0.203	-0.054	NaN	NaN	NaN	NaN	NaN	NaN	NaN	NaN	NaN	NaN	NaN	NaN	63.000	41.145	40.885	44.395	40.235	27.092	3.314	2.827	76.599	0.322	NaN	-0.344	63.000	33.995	41.015	28.535	38.480	22.269	6.020	-1.044	-23.259	0.079	-0.059	0.059	63.000	42.250	46.800	50.505	43.485	24.424	8.896	8.790	214.685	0.056	0.085	0.024	63.000	42.315	47.970	48.100	50.570	23.905	6.342	3.866	92.426	-0.045	-0.059	NaN	NaN	NaN	NaN	NaN	NaN	NaN	NaN	NaN	NaN	NaN	NaN	NaN	112.000	35.685	39.585	32.240	37.115	23.809	4.239	0.006	0.148	0.026	0.144	-0.129	120.000	39.650	42.315	40.235	42.640	23.725	0.669	0.201	4.774	-0.003	NaN	-0.088	NaN	NaN	NaN	NaN	NaN	NaN	NaN	NaN	NaN	NaN	NaN	NaN
64	63.000	64.000	40.755	33.410	43.875	28.925	32.253	5.463	5.459	176.081	-0.143	NaN	0.144	64.000	39.065	33.930	41.080	22.165	30.837	11.936	10.781	332.469	-0.057	-0.064	0.053	NaN	NaN	NaN	NaN	NaN	NaN	NaN	NaN	NaN	NaN	NaN	NaN	64.000	40.820	41.080	44.330	40.235	26.585	3.610	3.149	83.714	0.322	-0.063	-0.362	64.000	33.605	40.885	29.185	38.870	22.012	4.858	-0.795	-17.496	0.250	-0.753	0.409	64.000	42.185	46.930	50.505	43.485	24.180	9.005	8.920	215.695	0.130	NaN	-0.110	64.000	42.380	47.970	48.100	50.570	23.844	6.283	3.833	91.395	-0.033	NaN	0.059	NaN	NaN	NaN	NaN	NaN	NaN	NaN	NaN	NaN	NaN	NaN	NaN	113.000	35.750	39.585	32.175	37.050	23.441	4.383	-0.066	-1.546	-0.072	0.091	-0.053	121.000	39.585	42.315	40.170	42.640	23.678	0.669	0.200	4.736	-0.001	-0.057	-0.057	NaN	NaN	NaN	NaN	NaN	NaN	NaN	NaN	NaN	NaN	NaN	NaN
65	64.000	65.000	40.755	33.345	43.940	28.860	32.448	5.501	5.499	178.426	0.039	0.091	0.053	65.000	39.130	33.995	41.080	22.295	30.965	11.861	10.679	330.691	-0.102	-0.128	-0.053	NaN	NaN	NaN	NaN	NaN	NaN	NaN	NaN	NaN	NaN	NaN	NaN	65.000	41.405	41.015	44.330	40.235	27.196	3.027	2.691	73.185	-0.458	NaN	0.582	65.000	33.865	40.950	29.510	39.065	22.249	4.745	-0.915	-20.365	-0.120	-0.376	-0.264	65.000	42.250	46.800	50.505	43.485	24.424	8.896	8.790	214.685	-0.130	NaN	0.109	65.000	42.315	47.970	48.100	50.570	23.905	6.342	3.866	92.426	0.033	NaN	-0.059	NaN	NaN	NaN	NaN	NaN	NaN	NaN	NaN	NaN	NaN	NaN	NaN	114.000	35.620	39.520	32.110	36.985	23.341	4.330	0.018	0.431	0.084	0.091	0.143	NaN	NaN	NaN	NaN	NaN	NaN	NaN	NaN	NaN	NaN	NaN	NaN	NaN	NaN	NaN	NaN	NaN	NaN	NaN	NaN	NaN	NaN	NaN	NaN
66	65.000	66.000	40.755	33.345	44.070	28.665	32.396	5.735	5.733	185.714	0.234	0.234	NaN	66.000	39.130	33.865	40.950	22.425	31.018	11.584	10.398	322.537	-0.281	-0.149	0.128	NaN	NaN	NaN	NaN	NaN	NaN	NaN	NaN	NaN	NaN	NaN	NaN	66.000	41.145	41.080	44.395	40.235	26.916	3.358	2.971	79.967	0.280	0.063	-0.268	66.000	34.125	41.015	29.640	39.130	22.291	4.865	-1.050	-23.415	-0.135	-0.145	-0.265	66.000	42.250	46.865	50.440	43.485	24.358	8.860	8.773	213.692	-0.017	-0.060	-0.025	66.000	42.250	47.970	48.100	50.570	23.817	6.402	3.929	93.584	0.063	NaN	-0.059	NaN	NaN	NaN	NaN	NaN	NaN	NaN	NaN	NaN	NaN	NaN	NaN	115.000	35.620	39.520	31.980	36.855	23.745	4.511	0.133	3.165	0.115	0.182	NaN	NaN	NaN	NaN	NaN	NaN	NaN	NaN	NaN	NaN	NaN	NaN	NaN	NaN	NaN	NaN	NaN	NaN	NaN	NaN	NaN	NaN	NaN	NaN	NaN
67	66.000	67.000	40.690	33.345	44.265	28.470	32.357	6.045	6.045	195.596	0.312	0.273	-0.038	67.000	39.065	33.865	40.950	22.555	30.981	11.466	10.338	320.280	-0.060	-0.128	-0.011	NaN	NaN	NaN	NaN	NaN	NaN	NaN	NaN	NaN	NaN	NaN	NaN	67.000	41.015	41.080	44.395	40.235	26.820	3.484	3.062	82.113	0.091	NaN	-0.126	67.000	34.255	41.080	29.835	39.260	22.313	4.780	-1.096	-24.454	-0.046	-0.230	-0.145	67.000	42.250	46.800	50.310	43.550	24.391	8.691	8.592	209.568	-0.181	-0.145	0.024	67.000	42.315	47.970	48.100	50.570	23.874	6.342	3.878	92.595	-0.051	NaN	0.059	NaN	NaN	NaN	NaN	NaN	NaN	NaN	NaN	NaN	NaN	NaN	NaN	116.000	35.620	39.585	31.980	36.855	23.281	4.550	0.140	3.253	0.006	NaN	-0.039	NaN	NaN	NaN	NaN	NaN	NaN	NaN	NaN	NaN	NaN	NaN	NaN	NaN	NaN	NaN	NaN	NaN	NaN	NaN	NaN	NaN	NaN	NaN	NaN
68	67.000	68.000	40.690	33.215	44.525	28.210	32.409	6.305	6.305	204.338	0.260	0.365	0.103	68.000	39.065	33.865	40.950	22.555	30.928	11.466	10.332	319.545	-0.006	NaN	NaN	NaN	NaN	NaN	NaN	NaN	NaN	NaN	NaN	NaN	NaN	NaN	NaN	68.000	40.755	41.080	44.395	40.235	26.585	3.737	3.244	86.249	0.183	NaN	-0.253	68.000	34.125	41.080	29.900	39.260	22.185	4.600	-0.969	-21.488	0.127	-0.060	0.119	68.000	42.315	46.735	50.310	43.615	24.447	8.582	8.472	207.110	-0.120	-0.024	0.084	68.000	42.250	47.905	48.100	50.570	23.817	6.428	3.899	92.853	0.020	NaN	-0.086	NaN	NaN	NaN	NaN	NaN	NaN	NaN	NaN	NaN	NaN	NaN	NaN	117.000	35.620	39.585	31.915	36.855	23.244	4.602	0.113	2.624	-0.027	0.052	NaN	NaN	NaN	NaN	NaN	NaN	NaN	NaN	NaN	NaN	NaN	NaN	NaN	NaN	NaN	NaN	NaN	NaN	NaN	NaN	NaN	NaN	NaN	NaN	NaN
69	68.000	69.000	40.755	33.150	44.785	27.885	32.409	6.630	6.630	214.871	0.325	0.416	0.091	69.000	39.130	33.865	40.950	22.555	30.875	11.456	10.288	317.652	-0.044	NaN	0.010	NaN	NaN	NaN	NaN	NaN	NaN	NaN	NaN	NaN	NaN	NaN	NaN	69.000	40.495	41.080	44.330	40.235	26.303	3.927	3.374	88.750	0.130	-0.063	-0.254	69.000	34.190	41.015	29.965	39.260	22.185	4.575	-1.022	-22.663	-0.053	-0.060	-0.035	69.000	42.315	46.735	50.245	43.615	24.358	8.522	8.417	205.022	-0.055	-0.060	NaN	69.000	42.250	47.970	48.100	50.570	23.698	6.402	3.947	93.542	0.049	NaN	0.026	NaN	NaN	NaN	NaN	NaN	NaN	NaN	NaN	NaN	NaN	NaN	NaN	118.000	35.685	39.585	32.045	36.855	22.972	4.550	0.160	3.667	0.047	-0.104	-0.052	NaN	NaN	NaN	NaN	NaN	NaN	NaN	NaN	NaN	NaN	NaN	NaN	NaN	NaN	NaN	NaN	NaN	NaN	NaN	NaN	NaN	NaN	NaN	NaN
70	69.000	70.000	40.690	33.215	44.915	27.690	32.422	6.955	6.955	225.488	0.325	0.234	-0.091	70.000	39.130	33.865	40.950	22.555	30.981	11.456	10.301	319.123	0.012	NaN	NaN	NaN	NaN	NaN	NaN	NaN	NaN	NaN	NaN	NaN	NaN	NaN	NaN	70.000	40.365	41.080	44.395	40.235	26.298	4.118	3.501	92.075	0.127	0.064	-0.127	70.000	33.865	41.015	29.900	39.260	22.105	4.336	-0.805	-17.800	0.216	0.059	0.297	70.000	42.380	46.670	50.245	43.615	24.513	8.437	8.320	203.962	-0.097	NaN	0.084	70.000	42.250	47.970	48.100	50.570	23.760	6.402	3.923	93.204	-0.024	NaN	NaN	NaN	NaN	NaN	NaN	NaN	NaN	NaN	NaN	NaN	NaN	NaN	NaN	119.000	35.685	39.585	32.110	36.920	22.775	4.459	0.132	3.008	-0.028	-0.091	NaN	NaN	NaN	NaN	NaN	NaN	NaN	NaN	NaN	NaN	NaN	NaN	NaN	NaN	NaN	NaN	NaN	NaN	NaN	NaN	NaN	NaN	NaN	NaN	NaN
71	70.000	71.000	40.820	33.085	44.720	27.885	32.552	6.500	6.500	211.588	-0.455	-0.273	0.182	71.000	39.130	33.930	40.950	22.555	30.875	11.520	10.342	319.292	0.041	NaN	-0.064	NaN	NaN	NaN	NaN	NaN	NaN	NaN	NaN	NaN	NaN	NaN	NaN	71.000	40.365	41.080	44.460	40.235	26.253	4.181	3.552	93.258	0.051	0.064	NaN	71.000	33.930	40.950	29.965	39.325	22.142	4.285	-0.922	-20.424	-0.117	-0.085	-0.035	71.000	42.445	46.670	50.245	43.615	24.536	8.377	8.270	202.901	-0.051	NaN	0.061	71.000	42.315	47.970	48.035	50.570	23.786	6.283	3.827	91.023	-0.096	-0.059	0.059	NaN	NaN	NaN	NaN	NaN	NaN	NaN	NaN	NaN	NaN	NaN	NaN	120.000	35.685	39.520	32.175	36.985	23.260	4.330	0.082	1.901	-0.050	-0.091	0.038	NaN	NaN	NaN	NaN	NaN	NaN	NaN	NaN	NaN	NaN	NaN	NaN	NaN	NaN	NaN	NaN	NaN	NaN	NaN	NaN	NaN	NaN	NaN	NaN
72	71.000	72.000	40.820	33.150	44.720	27.950	32.500	6.500	6.500	211.250	4.665E-6	-0.052	-0.052	72.000	39.130	33.930	40.950	22.555	30.875	11.520	10.342	319.292	NaN	NaN	NaN	NaN	NaN	NaN	NaN	NaN	NaN	NaN	NaN	NaN	NaN	NaN	NaN	72.000	40.105	41.145	44.525	40.170	26.020	4.526	3.866	100.585	0.313	0.077	-0.268	72.000	33.995	40.950	29.965	39.325	22.179	4.345	-0.970	-21.505	-0.047	NaN	-0.060	72.000	42.445	46.670	50.245	43.615	24.536	8.377	8.270	202.901	NaN	NaN	NaN	72.000	42.250	47.970	48.035	50.570	23.729	6.342	3.878	92.012	0.051	NaN	-0.059	NaN	NaN	NaN	NaN	NaN	NaN	NaN	NaN	NaN	NaN	NaN	NaN	121.000	35.685	39.585	32.045	36.855	23.206	4.550	0.161	3.726	0.079	0.182	-0.039	NaN	NaN	NaN	NaN	NaN	NaN	NaN	NaN	NaN	NaN	NaN	NaN	NaN	NaN	NaN	NaN	NaN	NaN	NaN	NaN	NaN	NaN	NaN	NaN
73	72.000	73.000	40.690	33.215	44.720	27.885	32.461	6.682	6.682	216.903	0.182	0.052	-0.130	73.000	39.130	34.060	40.950	22.555	30.859	11.648	10.433	321.941	0.091	NaN	-0.128	NaN	NaN	NaN	NaN	NaN	NaN	NaN	NaN	NaN	NaN	NaN	NaN	73.000	41.080	41.015	44.655	40.170	26.912	3.674	3.205	86.253	-0.661	0.127	0.979	73.000	34.190	40.950	29.965	39.325	22.381	4.527	-1.116	-24.970	-0.146	NaN	-0.182	73.000	42.315	46.800	50.310	43.615	24.447	8.606	8.505	207.916	0.235	0.060	-0.169	73.000	42.315	47.970	48.100	50.570	23.874	6.342	3.878	92.595	8.234E-4	0.059	0.059	NaN	NaN	NaN	NaN	NaN	NaN	NaN	NaN	NaN	NaN	NaN	NaN	NaN	NaN	NaN	NaN	NaN	NaN	NaN	NaN	NaN	NaN	NaN	NaN	NaN	NaN	NaN	NaN	NaN	NaN	NaN	NaN	NaN	NaN	NaN	NaN	NaN	NaN	NaN	NaN	NaN	NaN	NaN	NaN	NaN	NaN	NaN	NaN
74	73.000	74.000	40.755	33.215	44.785	27.820	32.409	6.734	6.734	218.242	0.052	0.091	0.039	74.000	39.130	34.060	40.950	22.555	30.769	11.648	10.435	321.075	0.003	NaN	NaN	NaN	NaN	NaN	NaN	NaN	NaN	NaN	NaN	NaN	NaN	NaN	NaN	74.000	41.275	41.015	44.655	40.170	26.964	3.484	3.070	82.772	-0.135	NaN	0.189	74.000	34.255	40.885	30.030	39.325	22.381	4.504	-1.169	-26.157	-0.053	-0.061	-0.038	74.000	42.315	46.735	50.310	43.550	24.391	8.606	8.503	207.397	-0.002	0.024	0.024	74.000	42.250	47.905	48.100	50.570	23.760	6.428	3.892	92.473	0.014	NaN	-0.086	NaN	NaN	NaN	NaN	NaN	NaN	NaN	NaN	NaN	NaN	NaN	NaN	NaN	NaN	NaN	NaN	NaN	NaN	NaN	NaN	NaN	NaN	NaN	NaN	NaN	NaN	NaN	NaN	NaN	NaN	NaN	NaN	NaN	NaN	NaN	NaN	NaN	NaN	NaN	NaN	NaN	NaN	NaN	NaN	NaN	NaN	NaN	NaN
75	74.000	75.000	40.690	33.215	44.850	27.755	32.461	6.864	6.864	222.810	0.130	0.091	-0.039	75.000	39.065	33.930	40.950	22.620	30.928	11.466	10.332	319.545	-0.103	-0.064	0.118	NaN	NaN	NaN	NaN	NaN	NaN	NaN	NaN	NaN	NaN	NaN	NaN	75.000	41.210	41.015	44.590	40.235	27.008	3.469	3.023	81.644	-0.047	-0.078	-0.063	75.000	34.320	40.755	29.900	39.260	22.616	4.666	-1.333	-30.150	-0.164	0.144	-0.020	75.000	42.250	46.735	50.375	43.485	24.424	8.751	8.645	211.144	0.142	0.084	-0.060	75.000	42.315	47.970	48.100	50.570	23.874	6.342	3.878	92.595	-0.014	NaN	0.086	NaN	NaN	NaN	NaN	NaN	NaN	NaN	NaN	NaN	NaN	NaN	NaN	NaN	NaN	NaN	NaN	NaN	NaN	NaN	NaN	NaN	NaN	NaN	NaN	NaN	NaN	NaN	NaN	NaN	NaN	NaN	NaN	NaN	NaN	NaN	NaN	NaN	NaN	NaN	NaN	NaN	NaN	NaN	NaN	NaN	NaN	NaN	NaN
76	75.000	76.000	40.625	33.345	44.915	27.625	32.279	7.150	7.150	230.795	0.286	0.143	-0.143	76.000	39.000	33.605	40.950	22.555	31.120	11.221	10.201	317.467	-0.131	0.064	0.309	NaN	NaN	NaN	NaN	NaN	NaN	NaN	NaN	NaN	NaN	NaN	NaN	76.000	40.885	41.015	44.525	40.235	26.721	3.723	3.196	85.413	0.173	-0.064	-0.318	76.000	34.255	40.690	29.965	39.260	22.594	4.522	-1.284	-29.000	0.050	-0.062	0.082	76.000	42.445	46.605	50.375	43.485	24.602	8.522	8.408	206.864	-0.237	NaN	0.229	76.000	42.250	47.905	48.035	50.505	23.790	6.342	3.853	91.674	-0.025	-0.086	-0.086	NaN	NaN	NaN	NaN	NaN	NaN	NaN	NaN	NaN	NaN	NaN	NaN	NaN	NaN	NaN	NaN	NaN	NaN	NaN	NaN	NaN	NaN	NaN	NaN	NaN	NaN	NaN	NaN	NaN	NaN	NaN	NaN	NaN	NaN	NaN	NaN	NaN	NaN	NaN	NaN	NaN	NaN	NaN	NaN	NaN	NaN	NaN	NaN
77	76.000	77.000	40.625	33.410	44.980	27.560	32.318	7.293	7.293	235.696	0.143	0.091	-0.052	77.000	39.000	33.735	40.950	22.620	31.104	11.285	10.241	318.535	0.040	-0.064	-0.128	NaN	NaN	NaN	NaN	NaN	NaN	NaN	NaN	NaN	NaN	NaN	NaN	77.000	40.820	41.015	44.525	40.170	26.766	3.800	3.285	87.922	0.088	0.014	-0.063	77.000	34.385	40.690	29.965	39.260	22.759	4.646	-1.382	-31.451	-0.098	NaN	-0.124	77.000	42.315	46.800	50.310	43.550	24.480	8.630	8.535	208.935	0.127	-0.085	-0.194	77.000	42.315	47.970	48.100	50.505	23.905	6.316	3.897	93.161	0.044	0.060	0.086	NaN	NaN	NaN	NaN	NaN	NaN	NaN	NaN	NaN	NaN	NaN	NaN	NaN	NaN	NaN	NaN	NaN	NaN	NaN	NaN	NaN	NaN	NaN	NaN	NaN	NaN	NaN	NaN	NaN	NaN	NaN	NaN	NaN	NaN	NaN	NaN	NaN	NaN	NaN	NaN	NaN	NaN	NaN	NaN	NaN	NaN	NaN	NaN
78	77.000	78.000	40.690	33.410	45.110	27.365	32.357	7.489	7.488	242.287	0.195	0.234	0.038	78.000	39.065	34.060	40.950	22.620	30.875	11.594	10.432	322.089	0.191	NaN	-0.310	78.000	41.600	37.375	48.425	29.445	29.896	10.463	10.455	312.561	10.455	0.380	-0.099	78.000	40.690	41.015	44.525	40.235	26.671	3.914	3.329	88.780	0.044	-0.013	-0.127	78.000	34.385	40.690	29.965	39.325	22.759	4.626	-1.435	-32.659	-0.053	-0.019	NaN	78.000	42.315	46.735	50.180	43.615	24.513	8.461	8.354	204.777	-0.181	-0.145	0.024	78.000	42.315	47.970	48.100	50.570	23.905	6.342	3.866	92.426	-0.031	0.027	NaN	NaN	NaN	NaN	NaN	NaN	NaN	NaN	NaN	NaN	NaN	NaN	NaN	NaN	NaN	NaN	NaN	NaN	NaN	NaN	NaN	NaN	NaN	NaN	NaN	NaN	NaN	NaN	NaN	NaN	NaN	NaN	NaN	NaN	NaN	NaN	NaN	NaN	NaN	NaN	NaN	NaN	NaN	NaN	NaN	NaN	NaN	NaN	NaN
79	78.000	79.000	40.690	33.410	45.305	27.170	32.357	7.761	7.761	251.121	0.273	0.273	NaN	79.000	39.065	33.995	40.950	22.620	30.928	11.530	10.385	321.189	-0.047	NaN	0.064	79.000	41.600	37.375	48.425	29.185	29.896	10.661	10.646	318.257	0.191	0.200	NaN	79.000	40.625	40.950	44.525	40.235	26.668	3.965	3.324	88.649	-0.005	NaN	-0.052	79.000	34.320	40.690	30.030	39.325	22.722	4.502	-1.350	-30.674	0.085	-0.062	0.062	79.000	42.315	46.800	50.180	43.615	24.480	8.485	8.390	205.386	0.036	NaN	-0.024	79.000	42.315	47.970	48.100	50.505	23.905	6.316	3.897	93.161	0.031	-0.026	NaN	NaN	NaN	NaN	NaN	NaN	NaN	NaN	NaN	NaN	NaN	NaN	NaN	NaN	NaN	NaN	NaN	NaN	NaN	NaN	NaN	NaN	NaN	NaN	NaN	NaN	NaN	NaN	NaN	NaN	NaN	NaN	NaN	NaN	NaN	NaN	NaN	NaN	NaN	NaN	NaN	NaN	NaN	NaN	NaN	NaN	NaN	NaN	NaN
80	79.000	80.000	40.625	33.475	45.370	27.040	32.318	7.995	7.995	258.384	0.234	0.143	-0.091	80.000	39.065	33.995	40.885	22.620	30.981	11.520	10.354	320.770	-0.031	-0.010	NaN	80.000	41.600	37.440	48.425	28.925	29.896	10.913	10.884	325.376	0.238	0.203	-0.051	80.000	40.690	41.015	44.655	40.170	26.715	4.054	3.464	92.549	0.140	0.141	0.050	80.000	34.320	40.690	30.030	39.325	22.775	4.502	-1.343	-30.585	0.007	NaN	NaN	80.000	42.250	46.800	50.115	43.680	24.457	8.461	8.352	204.266	-0.038	-0.084	-0.060	80.000	42.250	47.905	48.100	50.570	23.909	6.428	3.862	92.333	-0.035	0.027	-0.086	NaN	NaN	NaN	NaN	NaN	NaN	NaN	NaN	NaN	NaN	NaN	NaN	NaN	NaN	NaN	NaN	NaN	NaN	NaN	NaN	NaN	NaN	NaN	NaN	NaN	NaN	NaN	NaN	NaN	NaN	NaN	NaN	NaN	NaN	NaN	NaN	NaN	NaN	NaN	NaN	NaN	NaN	NaN	NaN	NaN	NaN	NaN	NaN
81	80.000	81.000	40.625	33.540	45.435	27.040	32.266	8.086	8.086	260.902	0.091	0.039	-0.052	81.000	39.065	34.125	40.950	22.555	30.875	11.723	10.538	325.367	0.185	0.075	-0.128	81.000	41.665	37.440	48.490	28.860	29.940	10.963	10.930	327.243	0.046	0.091	0.040	81.000	40.495	41.015	44.655	40.105	26.574	4.258	3.640	96.719	0.175	0.014	-0.190	81.000	34.385	40.755	29.965	39.325	22.759	4.646	-1.382	-31.451	-0.039	0.062	-0.082	81.000	42.250	46.800	50.180	43.680	24.457	8.522	8.408	205.631	0.056	0.060	NaN	81.000	42.315	47.905	48.100	50.570	23.967	6.369	3.811	91.345	-0.050	NaN	0.059	NaN	NaN	NaN	NaN	NaN	NaN	NaN	NaN	NaN	NaN	NaN	NaN	NaN	NaN	NaN	NaN	NaN	NaN	NaN	NaN	NaN	NaN	NaN	NaN	NaN	NaN	NaN	NaN	NaN	NaN	NaN	NaN	NaN	NaN	NaN	NaN	NaN	NaN	NaN	NaN	NaN	NaN	NaN	NaN	NaN	NaN	NaN	NaN
82	81.000	82.000	40.495	33.800	45.565	26.975	32.136	8.502	8.502	273.222	0.416	0.130	-0.286	82.000	39.065	34.125	40.950	22.555	31.034	11.723	10.557	327.623	0.019	NaN	NaN	82.000	41.600	37.375	48.555	28.665	30.087	11.146	11.120	334.557	0.190	0.193	0.010	82.000	40.560	41.015	44.655	40.170	26.756	4.181	3.540	94.708	-0.100	-0.013	0.064	82.000	34.385	40.755	29.965	39.325	22.919	4.646	-1.360	-31.172	0.022	NaN	NaN	82.000	42.380	46.800	50.245	43.615	24.669	8.485	8.380	206.725	-0.028	0.085	0.120	82.000	42.315	47.905	48.100	50.570	24.060	6.369	3.775	90.825	-0.036	NaN	NaN	NaN	NaN	NaN	NaN	NaN	NaN	NaN	NaN	NaN	NaN	NaN	NaN	NaN	NaN	NaN	NaN	NaN	NaN	NaN	NaN	NaN	NaN	NaN	NaN	NaN	NaN	NaN	NaN	NaN	NaN	NaN	NaN	NaN	NaN	NaN	NaN	NaN	NaN	NaN	NaN	NaN	NaN	NaN	NaN	NaN	NaN	NaN	NaN
83	82.000	83.000	40.365	34.060	45.695	26.845	31.811	8.970	8.970	285.348	0.468	0.182	-0.286	83.000	39.000	34.060	40.950	22.555	31.013	11.669	10.564	327.623	0.007	NaN	0.053	83.000	41.535	37.505	48.620	28.405	29.903	11.533	11.495	343.742	0.375	0.245	-0.143	83.000	40.625	41.015	44.655	40.170	26.756	4.118	3.493	93.453	-0.047	NaN	0.064	83.000	34.320	40.755	29.965	39.325	22.845	4.584	-1.302	-29.752	0.058	NaN	0.062	83.000	42.510	46.605	50.310	43.550	24.826	8.377	8.249	204.798	-0.131	0.084	0.192	83.000	42.380	47.970	48.100	50.570	24.029	6.283	3.761	90.381	-0.014	NaN	0.086	NaN	NaN	NaN	NaN	NaN	NaN	NaN	NaN	NaN	NaN	NaN	NaN	NaN	NaN	NaN	NaN	NaN	NaN	NaN	NaN	NaN	NaN	NaN	NaN	NaN	NaN	NaN	NaN	NaN	NaN	NaN	NaN	NaN	NaN	NaN	NaN	NaN	NaN	NaN	NaN	NaN	NaN	NaN	NaN	NaN	NaN	NaN	NaN
84	83.000	84.000	40.365	34.060	45.890	26.650	31.850	9.243	9.243	294.390	0.273	0.273	NaN	84.000	39.000	33.865	40.950	22.555	31.210	11.477	10.413	324.987	-0.151	NaN	0.192	84.000	41.665	37.440	48.685	28.275	30.083	11.545	11.496	345.825	5.014E-4	0.143	0.131	84.000	40.755	40.950	44.785	40.105	26.941	4.118	3.500	94.294	0.007	0.141	0.141	84.000	34.450	40.755	29.965	39.325	22.956	4.707	-1.408	-32.317	-0.105	NaN	-0.124	84.000	42.315	46.735	50.310	43.615	24.647	8.582	8.452	208.326	0.203	-0.024	-0.229	84.000	42.315	47.905	48.165	50.570	24.060	6.428	3.832	92.194	0.070	0.059	-0.086	NaN	NaN	NaN	NaN	NaN	NaN	NaN	NaN	NaN	NaN	NaN	NaN	NaN	NaN	NaN	NaN	NaN	NaN	NaN	NaN	NaN	NaN	NaN	NaN	NaN	NaN	NaN	NaN	NaN	NaN	NaN	NaN	NaN	NaN	NaN	NaN	NaN	NaN	NaN	NaN	NaN	NaN	NaN	NaN	NaN	NaN	NaN	NaN
85	84.000	85.000	40.300	34.125	45.890	26.455	31.488	9.491	9.491	298.851	0.248	0.158	-0.091	85.000	39.000	33.800	40.950	22.555	31.008	11.413	10.422	323.162	0.009	NaN	0.064	NaN	NaN	NaN	NaN	NaN	NaN	NaN	NaN	NaN	NaN	NaN	NaN	85.000	40.690	40.950	44.785	40.105	26.567	4.181	3.517	93.432	0.017	NaN	-0.064	85.000	34.450	40.820	29.965	39.260	22.644	4.749	-1.234	-27.936	0.174	0.021	-0.021	85.000	42.380	46.735	50.310	43.615	24.315	8.522	8.384	203.865	-0.068	NaN	0.060	85.000	42.315	47.905	48.100	50.505	23.663	6.342	3.759	88.949	-0.073	-0.086	NaN	NaN	NaN	NaN	NaN	NaN	NaN	NaN	NaN	NaN	NaN	NaN	NaN	NaN	NaN	NaN	NaN	NaN	NaN	NaN	NaN	NaN	NaN	NaN	NaN	NaN	NaN	NaN	NaN	NaN	NaN	NaN	NaN	NaN	NaN	NaN	NaN	NaN	NaN	NaN	NaN	NaN	NaN	NaN	NaN	NaN	NaN	NaN	NaN
86	85.000	86.000	40.235	34.255	45.890	26.390	31.345	9.687	9.687	303.625	0.196	0.053	-0.143	86.000	39.000	33.735	40.950	22.555	31.062	11.349	10.373	322.215	-0.049	NaN	0.064	NaN	NaN	NaN	NaN	NaN	NaN	NaN	NaN	NaN	NaN	NaN	NaN	86.000	40.690	41.015	44.850	40.105	26.522	4.258	3.613	95.815	0.096	0.063	-0.014	86.000	34.450	40.885	29.965	39.325	22.590	4.749	-1.241	-28.037	-0.007	-0.021	-0.021	86.000	42.315	46.735	50.245	43.615	24.260	8.522	8.382	203.349	-0.002	-0.060	-0.060	86.000	42.380	47.970	48.100	50.570	23.688	6.283	3.721	88.150	-0.038	0.027	0.086	NaN	NaN	NaN	NaN	NaN	NaN	NaN	NaN	NaN	NaN	NaN	NaN	NaN	NaN	NaN	NaN	NaN	NaN	NaN	NaN	NaN	NaN	NaN	NaN	NaN	NaN	NaN	NaN	NaN	NaN	NaN	NaN	NaN	NaN	NaN	NaN	NaN	NaN	NaN	NaN	NaN	NaN	NaN	NaN	NaN	NaN	NaN	NaN
87	86.000	87.000	40.235	34.125	46.085	26.260	31.345	9.802	9.802	307.238	0.115	0.221	0.104	87.000	39.065	33.540	40.950	22.555	31.152	11.146	10.173	316.896	-0.201	NaN	0.203	NaN	NaN	NaN	NaN	NaN	NaN	NaN	NaN	NaN	NaN	NaN	NaN	87.000	40.560	40.950	44.915	40.105	26.384	4.436	3.703	97.690	0.090	0.064	-0.115	87.000	34.515	40.885	29.965	39.260	22.520	4.831	-1.250	-28.160	-0.009	0.022	-0.061	87.000	42.315	46.735	50.245	43.615	24.191	8.522	8.389	202.944	0.007	NaN	NaN	87.000	42.250	47.905	48.100	50.570	23.543	6.428	3.802	89.498	0.080	NaN	-0.145	NaN	NaN	NaN	NaN	NaN	NaN	NaN	NaN	NaN	NaN	NaN	NaN	NaN	NaN	NaN	NaN	NaN	NaN	NaN	NaN	NaN	NaN	NaN	NaN	NaN	NaN	NaN	NaN	NaN	NaN	NaN	NaN	NaN	NaN	NaN	NaN	NaN	NaN	NaN	NaN	NaN	NaN	NaN	NaN	NaN	NaN	NaN	NaN
88	87.000	88.000	40.235	34.190	46.085	26.130	31.240	9.959	9.959	311.121	0.157	0.105	-0.053	88.000	39.065	33.475	40.950	22.555	31.152	11.081	10.119	315.215	-0.054	NaN	0.064	NaN	NaN	NaN	NaN	NaN	NaN	NaN	NaN	NaN	NaN	NaN	NaN	88.000	40.560	40.950	45.045	40.040	26.338	4.576	3.845	101.282	0.143	0.140	NaN	88.000	34.515	40.885	29.965	39.260	22.466	4.831	-1.258	-28.265	-0.008	NaN	NaN	88.000	42.315	46.735	50.180	43.680	24.157	8.437	8.303	200.582	-0.086	-0.084	NaN	88.000	42.250	47.905	48.100	50.570	23.511	6.428	3.814	89.671	0.012	NaN	NaN	NaN	NaN	NaN	NaN	NaN	NaN	NaN	NaN	NaN	NaN	NaN	NaN	NaN	NaN	NaN	NaN	NaN	NaN	NaN	NaN	NaN	NaN	NaN	NaN	NaN	NaN	NaN	NaN	NaN	NaN	NaN	NaN	NaN	NaN	NaN	NaN	NaN	NaN	NaN	NaN	NaN	NaN	NaN	NaN	NaN	NaN	NaN	NaN
89	88.000	89.000	40.105	34.320	46.150	26.065	31.020	10.232	10.232	317.386	0.273	0.091	-0.182	89.000	39.065	33.540	40.950	22.490	31.062	11.210	10.229	317.737	0.111	0.064	-0.064	NaN	NaN	NaN	NaN	NaN	NaN	NaN	NaN	NaN	NaN	NaN	NaN	89.000	40.690	40.885	45.175	40.040	26.430	4.564	3.800	100.432	-0.046	0.128	0.140	89.000	34.580	40.885	30.030	39.260	22.466	4.831	-1.258	-28.265	NaN	-0.061	-0.061	89.000	42.315	46.735	50.180	43.615	24.102	8.461	8.335	200.890	0.032	0.024	NaN	89.000	42.315	47.905	48.165	50.570	23.511	6.428	3.814	89.671	-3.109E-15	0.059	0.059	NaN	NaN	NaN	NaN	NaN	NaN	NaN	NaN	NaN	NaN	NaN	NaN	NaN	NaN	NaN	NaN	NaN	NaN	NaN	NaN	NaN	NaN	NaN	NaN	NaN	NaN	NaN	NaN	NaN	NaN	NaN	NaN	NaN	NaN	NaN	NaN	NaN	NaN	NaN	NaN	NaN	NaN	NaN	NaN	NaN	NaN	NaN	NaN
90	89.000	90.000	40.105	34.255	46.215	26.000	31.163	10.270	10.270	320.048	0.038	0.091	0.052	90.000	39.065	33.475	40.950	22.555	31.206	11.081	10.124	315.924	-0.105	-0.064	0.064	NaN	NaN	NaN	NaN	NaN	NaN	NaN	NaN	NaN	NaN	NaN	NaN	90.000	40.625	40.950	45.175	40.040	26.430	4.640	3.892	102.862	0.092	NaN	-0.076	90.000	34.450	40.950	29.965	39.260	22.429	4.793	-1.157	-25.942	0.102	0.061	0.099	90.000	42.380	46.735	50.050	43.680	24.247	8.256	8.136	197.261	-0.199	-0.145	0.060	90.000	42.315	47.905	48.165	50.570	23.599	6.428	3.809	89.878	-0.006	NaN	NaN	NaN	NaN	NaN	NaN	NaN	NaN	NaN	NaN	NaN	NaN	NaN	NaN	NaN	NaN	NaN	NaN	NaN	NaN	NaN	NaN	NaN	NaN	NaN	NaN	NaN	NaN	NaN	NaN	NaN	NaN	NaN	NaN	NaN	NaN	NaN	NaN	NaN	NaN	NaN	NaN	NaN	NaN	NaN	NaN	NaN	NaN	NaN	NaN
91	90.000	91.000	40.105	34.320	46.410	25.805	31.111	10.595	10.595	329.622	0.325	0.273	-0.052	91.000	39.130	33.475	40.950	22.555	31.242	11.071	10.080	314.915	-0.044	NaN	0.011	NaN	NaN	NaN	NaN	NaN	NaN	NaN	NaN	NaN	NaN	NaN	NaN	91.000	41.015	40.885	45.110	40.040	26.756	4.181	3.540	94.708	-0.352	-0.064	0.395	91.000	34.385	41.015	30.030	39.325	22.339	4.671	-1.079	-24.112	0.077	-0.084	0.037	91.000	42.315	46.735	50.050	43.745	24.191	8.293	8.155	197.278	0.019	-0.023	-0.061	91.000	42.315	47.840	48.100	50.505	23.631	6.369	3.739	88.366	-0.069	-0.086	-0.027	NaN	NaN	NaN	NaN	NaN	NaN	NaN	NaN	NaN	NaN	NaN	NaN	NaN	NaN	NaN	NaN	NaN	NaN	NaN	NaN	NaN	NaN	NaN	NaN	NaN	NaN	NaN	NaN	NaN	NaN	NaN	NaN	NaN	NaN	NaN	NaN	NaN	NaN	NaN	NaN	NaN	NaN	NaN	NaN	NaN	NaN	NaN	NaN
92	91.000	92.000	40.040	34.320	46.475	25.740	31.125	10.725	10.724	333.783	0.129	0.091	-0.039	92.000	39.130	33.605	40.950	22.555	31.188	11.199	10.182	317.568	0.103	NaN	-0.128	NaN	NaN	NaN	NaN	NaN	NaN	NaN	NaN	NaN	NaN	NaN	NaN	92.000	40.950	40.950	45.175	39.975	26.709	4.336	3.720	99.351	0.180	0.078	-0.078	92.000	34.385	41.015	30.095	39.325	22.393	4.611	-1.035	-23.178	0.044	-0.060	NaN	92.000	42.250	46.800	49.985	43.745	24.136	8.316	8.187	197.599	0.032	-0.060	-0.084	92.000	42.315	47.840	48.100	50.505	23.663	6.369	3.727	88.193	-0.012	NaN	NaN	NaN	NaN	NaN	NaN	NaN	NaN	NaN	NaN	NaN	NaN	NaN	NaN	NaN	NaN	NaN	NaN	NaN	NaN	NaN	NaN	NaN	NaN	NaN	NaN	NaN	NaN	NaN	NaN	NaN	NaN	NaN	NaN	NaN	NaN	NaN	NaN	NaN	NaN	NaN	NaN	NaN	NaN	NaN	NaN	NaN	NaN	NaN	NaN
93	92.000	93.000	40.105	34.385	46.605	25.610	30.954	10.920	10.920	338.021	0.196	0.182	-0.014	93.000	39.130	33.345	41.015	22.555	31.242	10.953	10.008	312.675	-0.174	0.011	0.256	NaN	NaN	NaN	NaN	NaN	NaN	NaN	NaN	NaN	NaN	NaN	NaN	93.000	40.950	40.950	45.305	39.975	26.574	4.463	3.826	101.662	0.106	0.127	NaN	93.000	34.385	41.080	30.030	39.325	22.179	4.695	-1.049	-23.259	-0.014	0.060	-0.024	93.000	42.315	46.735	49.985	43.680	24.123	8.256	8.140	196.365	-0.047	0.024	0.084	93.000	42.315	47.905	48.100	50.505	23.536	6.342	3.808	89.625	0.081	NaN	0.027	NaN	NaN	NaN	NaN	NaN	NaN	NaN	NaN	NaN	NaN	NaN	NaN	NaN	NaN	NaN	NaN	NaN	NaN	NaN	NaN	NaN	NaN	NaN	NaN	NaN	NaN	NaN	NaN	NaN	NaN	NaN	NaN	NaN	NaN	NaN	NaN	NaN	NaN	NaN	NaN	NaN	NaN	NaN	NaN	NaN	NaN	NaN	NaN
94	93.000	94.000	40.235	34.320	46.735	25.480	31.227	10.972	10.972	342.631	0.052	0.182	0.129	94.000	39.130	33.475	41.015	22.490	31.279	11.146	10.162	317.855	0.154	0.064	-0.128	NaN	NaN	NaN	NaN	NaN	NaN	NaN	NaN	NaN	NaN	NaN	NaN	94.000	40.950	40.950	45.370	39.910	26.711	4.541	3.913	104.527	0.088	0.078	NaN	94.000	34.385	41.145	30.420	39.585	22.269	4.261	-0.989	-22.021	0.060	-0.458	-0.024	94.000	42.380	46.670	49.985	43.745	24.336	8.148	8.011	194.954	-0.129	-0.023	0.084	94.000	42.315	47.905	48.165	50.570	23.656	6.428	3.815	90.259	0.007	0.086	NaN	NaN	NaN	NaN	NaN	NaN	NaN	NaN	NaN	NaN	NaN	NaN	NaN	NaN	NaN	NaN	NaN	NaN	NaN	NaN	NaN	NaN	NaN	NaN	NaN	NaN	NaN	NaN	NaN	NaN	NaN	NaN	NaN	NaN	NaN	NaN	NaN	NaN	NaN	NaN	NaN	NaN	NaN	NaN	NaN	NaN	NaN	NaN	NaN
95	94.000	95.000	40.170	34.320	46.995	25.285	31.240	11.323	11.322	353.709	0.350	0.312	-0.039	95.000	39.130	33.410	41.015	22.555	31.386	11.017	10.065	315.895	-0.097	-0.064	0.064	NaN	NaN	NaN	NaN	NaN	NaN	NaN	NaN	NaN	NaN	NaN	NaN	95.000	40.755	40.950	45.435	39.910	26.615	4.794	4.084	108.701	0.171	0.063	-0.190	95.000	34.450	41.210	30.420	39.585	22.306	4.345	-0.983	-21.924	0.006	NaN	-0.085	95.000	42.380	46.735	49.985	43.745	24.336	8.172	8.045	195.782	0.034	NaN	-0.024	95.000	42.315	47.905	48.165	50.570	23.688	6.428	3.803	90.085	-0.012	NaN	NaN	NaN	NaN	NaN	NaN	NaN	NaN	NaN	NaN	NaN	NaN	NaN	NaN	NaN	NaN	NaN	NaN	NaN	NaN	NaN	NaN	NaN	NaN	NaN	NaN	NaN	NaN	NaN	NaN	NaN	NaN	NaN	NaN	NaN	NaN	NaN	NaN	NaN	NaN	NaN	NaN	NaN	NaN	NaN	NaN	NaN	NaN	NaN	NaN
96	95.000	96.000	40.170	34.255	47.125	25.155	31.293	11.453	11.451	358.343	0.129	0.182	0.052	96.000	39.130	33.540	40.950	22.555	31.279	11.135	10.126	316.719	0.061	-0.011	-0.128	NaN	NaN	NaN	NaN	NaN	NaN	NaN	NaN	NaN	NaN	NaN	NaN	96.000	40.820	40.950	45.500	39.910	26.662	4.794	4.088	109.005	0.004	0.063	0.063	96.000	34.320	41.145	30.485	39.585	22.286	4.140	-0.898	-20.014	0.085	-0.060	0.145	96.000	42.380	46.735	49.920	43.745	24.336	8.111	7.990	194.435	-0.055	-0.060	NaN	96.000	42.315	47.905	48.100	50.570	23.688	6.369	3.746	88.742	-0.057	-0.059	NaN	NaN	NaN	NaN	NaN	NaN	NaN	NaN	NaN	NaN	NaN	NaN	NaN	NaN	NaN	NaN	NaN	NaN	NaN	NaN	NaN	NaN	NaN	NaN	NaN	NaN	NaN	NaN	NaN	NaN	NaN	NaN	NaN	NaN	NaN	NaN	NaN	NaN	NaN	NaN	NaN	NaN	NaN	NaN	NaN	NaN	NaN	NaN	NaN
97	96.000	97.000	40.170	34.255	47.190	25.090	31.240	11.545	11.543	360.591	0.091	0.091	NaN	97.000	39.130	33.475	41.015	22.555	31.279	11.081	10.108	316.169	-0.018	0.011	0.064	NaN	NaN	NaN	NaN	NaN	NaN	NaN	NaN	NaN	NaN	NaN	NaN	97.000	40.885	40.885	45.500	39.910	26.709	4.717	4.001	106.854	-0.088	NaN	0.077	97.000	34.320	41.145	30.485	39.585	22.232	4.140	-0.905	-20.115	-0.007	NaN	NaN	97.000	42.250	46.800	49.920	43.745	24.157	8.256	8.137	196.564	0.147	NaN	-0.145	97.000	42.315	47.840	47.970	50.505	23.688	6.251	3.633	86.055	-0.113	-0.145	-0.028	NaN	NaN	NaN	NaN	NaN	NaN	NaN	NaN	NaN	NaN	NaN	NaN	NaN	NaN	NaN	NaN	NaN	NaN	NaN	NaN	NaN	NaN	NaN	NaN	NaN	NaN	NaN	NaN	NaN	NaN	NaN	NaN	NaN	NaN	NaN	NaN	NaN	NaN	NaN	NaN	NaN	NaN	NaN	NaN	NaN	NaN	NaN	NaN
98	97.000	98.000	40.560	33.475	47.320	24.960	32.033	10.872	10.865	348.034	-0.678	0.183	0.853	98.000	39.130	33.475	41.015	22.490	31.207	11.146	10.143	316.550	0.035	0.064	NaN	NaN	NaN	NaN	NaN	NaN	NaN	NaN	NaN	NaN	NaN	NaN	NaN	98.000	40.820	40.885	45.565	39.910	26.619	4.844	4.103	109.229	0.103	0.064	-0.064	98.000	34.385	41.145	30.485	39.585	22.200	4.200	-0.975	-21.649	-0.070	NaN	-0.060	98.000	42.315	46.735	49.855	43.745	24.235	8.111	7.999	193.851	-0.138	-0.060	0.084	98.000	42.250	47.905	47.970	50.440	23.593	6.257	3.789	89.397	0.156	-0.026	-0.033	NaN	NaN	NaN	NaN	NaN	NaN	NaN	NaN	NaN	NaN	NaN	NaN	NaN	NaN	NaN	NaN	NaN	NaN	NaN	NaN	NaN	NaN	NaN	NaN	NaN	NaN	NaN	NaN	NaN	NaN	NaN	NaN	NaN	NaN	NaN	NaN	NaN	NaN	NaN	NaN	NaN	NaN	NaN	NaN	NaN	NaN	NaN	NaN
99	98.000	99.000	40.495	33.605	47.320	24.960	31.943	11.014	11.008	351.617	0.143	NaN	-0.142	99.000	39.130	33.345	40.950	22.490	31.369	11.007	10.015	314.171	-0.128	-0.011	0.128	NaN	NaN	NaN	NaN	NaN	NaN	NaN	NaN	NaN	NaN	NaN	NaN	99.000	40.625	40.950	45.565	39.910	26.478	5.048	4.276	113.213	0.172	NaN	-0.204	99.000	34.385	41.210	30.485	39.585	22.200	4.225	-0.922	-20.470	0.053	NaN	-0.025	99.000	42.315	46.735	49.920	43.745	24.268	8.172	8.051	195.394	0.052	0.060	NaN	99.000	42.250	47.840	47.970	50.440	23.656	6.283	3.733	88.319	-0.056	NaN	-0.027	NaN	NaN	NaN	NaN	NaN	NaN	NaN	NaN	NaN	NaN	NaN	NaN	NaN	NaN	NaN	NaN	NaN	NaN	NaN	NaN	NaN	NaN	NaN	NaN	NaN	NaN	NaN	NaN	NaN	NaN	NaN	NaN	NaN	NaN	NaN	NaN	NaN	NaN	NaN	NaN	NaN	NaN	NaN	NaN	NaN	NaN	NaN	NaN
100	99.000	100.000	40.430	33.735	47.320	24.960	31.747	11.157	11.152	354.034	0.144	NaN	-0.142	100.000	39.195	33.280	40.950	22.555	31.405	10.868	9.863	309.764	-0.152	-0.064	0.075	NaN	NaN	NaN	NaN	NaN	NaN	NaN	NaN	NaN	NaN	NaN	NaN	100.000	40.755	40.950	45.695	39.845	26.527	5.062	4.334	114.979	0.059	0.141	0.127	100.000	34.320	41.210	30.550	39.585	22.110	4.105	-0.844	-18.666	0.078	-0.060	0.060	100.000	42.315	46.670	49.920	43.810	24.268	8.125	7.984	193.754	-0.068	-0.023	0.023	100.000	42.315	47.970	47.970	50.440	23.619	6.171	3.782	89.321	0.048	NaN	0.112	NaN	NaN	NaN	NaN	NaN	NaN	NaN	NaN	NaN	NaN	NaN	NaN	NaN	NaN	NaN	NaN	NaN	NaN	NaN	NaN	NaN	NaN	NaN	NaN	NaN	NaN	NaN	NaN	NaN	NaN	NaN	NaN	NaN	NaN	NaN	NaN	NaN	NaN	NaN	NaN	NaN	NaN	NaN	NaN	NaN	NaN	NaN	NaN
101	100.000	101.000	40.885	33.150	47.450	24.830	32.292	10.598	10.593	342.090	-0.558	0.183	0.741	101.000	39.130	33.085	40.950	22.555	31.332	10.686	9.754	305.603	-0.110	NaN	0.181	NaN	NaN	NaN	NaN	NaN	NaN	NaN	NaN	NaN	NaN	NaN	NaN	101.000	40.625	41.015	45.760	39.780	26.206	5.281	4.571	119.779	0.236	0.078	-0.142	101.000	34.385	41.210	30.550	39.585	21.950	4.165	-0.903	-19.811	-0.058	NaN	-0.060	101.000	42.380	46.670	49.920	43.745	24.168	8.087	7.972	192.656	-0.012	0.024	0.061	101.000	42.315	47.905	47.970	50.440	23.500	6.197	3.768	88.548	-0.014	NaN	-0.027	NaN	NaN	NaN	NaN	NaN	NaN	NaN	NaN	NaN	NaN	NaN	NaN	NaN	NaN	NaN	NaN	NaN	NaN	NaN	NaN	NaN	NaN	NaN	NaN	NaN	NaN	NaN	NaN	NaN	NaN	NaN	NaN	NaN	NaN	NaN	NaN	NaN	NaN	NaN	NaN	NaN	NaN	NaN	NaN	NaN	NaN	NaN	NaN
102	101.000	102.000	40.885	33.150	47.515	24.765	32.227	10.689	10.686	344.367	0.092	0.091	NaN	102.000	39.195	32.825	40.950	22.555	31.513	10.419	9.497	299.269	-0.257	NaN	0.267	NaN	NaN	NaN	NaN	NaN	NaN	NaN	NaN	NaN	NaN	NaN	NaN	102.000	40.625	41.015	45.825	39.780	26.164	5.345	4.632	121.190	0.061	0.063	NaN	102.000	34.320	41.210	30.485	39.585	21.845	4.165	-0.917	-20.022	-0.014	0.060	0.060	102.000	42.380	46.735	49.920	43.745	24.124	8.111	8.016	193.370	0.044	NaN	-0.024	102.000	42.380	47.970	47.970	50.505	23.523	6.138	3.759	88.425	-0.009	0.027	0.086	NaN	NaN	NaN	NaN	NaN	NaN	NaN	NaN	NaN	NaN	NaN	NaN	NaN	NaN	NaN	NaN	NaN	NaN	NaN	NaN	NaN	NaN	NaN	NaN	NaN	NaN	NaN	NaN	NaN	NaN	NaN	NaN	NaN	NaN	NaN	NaN	NaN	NaN	NaN	NaN	NaN	NaN	NaN	NaN	NaN	NaN	NaN	NaN
103	102.000	103.000	40.885	33.215	47.645	24.635	31.980	10.923	10.921	349.239	0.235	0.183	-0.051	103.000	39.260	32.630	40.950	22.555	31.513	10.216	9.299	293.029	-0.198	NaN	0.203	NaN	NaN	NaN	NaN	NaN	NaN	NaN	NaN	NaN	NaN	NaN	NaN	103.000	40.885	41.015	45.760	39.780	26.174	5.029	4.421	115.710	-0.211	-0.063	0.252	103.000	34.320	41.210	30.485	39.585	21.649	4.165	-0.928	-20.090	-0.011	NaN	NaN	103.000	42.315	46.670	49.920	43.745	23.946	8.148	8.041	192.559	0.026	NaN	-0.037	103.000	42.380	47.970	47.905	50.440	23.374	6.052	3.761	87.910	0.002	-0.086	NaN	NaN	NaN	NaN	NaN	NaN	NaN	NaN	NaN	NaN	NaN	NaN	NaN	NaN	NaN	NaN	NaN	NaN	NaN	NaN	NaN	NaN	NaN	NaN	NaN	NaN	NaN	NaN	NaN	NaN	NaN	NaN	NaN	NaN	NaN	NaN	NaN	NaN	NaN	NaN	NaN	NaN	NaN	NaN	NaN	NaN	NaN	NaN	NaN
104	103.000	104.000	40.885	33.280	47.710	24.505	32.110	11.117	11.116	356.928	0.195	0.143	-0.051	104.000	39.260	32.500	40.950	22.620	31.801	10.023	9.142	290.722	-0.157	-0.064	0.128	NaN	NaN	NaN	NaN	NaN	NaN	NaN	NaN	NaN	NaN	NaN	NaN	104.000	40.820	41.015	45.695	39.780	26.310	5.029	4.416	116.188	-0.005	-0.063	-0.063	104.000	34.385	41.210	30.550	39.585	21.868	4.165	-0.943	-20.626	-0.015	-0.060	-0.060	104.000	42.315	46.670	49.790	43.810	24.124	8.003	7.894	190.429	-0.148	-0.145	NaN	104.000	42.315	47.840	47.970	50.440	23.553	6.224	3.774	88.894	0.013	0.059	-0.113	NaN	NaN	NaN	NaN	NaN	NaN	NaN	NaN	NaN	NaN	NaN	NaN	NaN	NaN	NaN	NaN	NaN	NaN	NaN	NaN	NaN	NaN	NaN	NaN	NaN	NaN	NaN	NaN	NaN	NaN	NaN	NaN	NaN	NaN	NaN	NaN	NaN	NaN	NaN	NaN	NaN	NaN	NaN	NaN	NaN	NaN	NaN	NaN
105	104.000	105.000	40.755	33.410	47.775	24.505	31.967	11.339	11.337	362.421	0.221	0.040	-0.183	105.000	39.195	32.565	40.950	22.555	31.747	10.163	9.281	294.656	0.139	0.064	-0.075	NaN	NaN	NaN	NaN	NaN	NaN	NaN	NaN	NaN	NaN	NaN	NaN	105.000	40.690	41.080	45.565	39.845	26.218	5.029	4.416	115.790	3.242E-4	-0.142	-0.142	105.000	34.385	41.210	30.485	39.520	21.907	4.250	-0.939	-20.567	0.004	0.085	NaN	105.000	42.380	46.735	49.595	43.940	24.203	7.737	7.643	184.983	-0.251	-0.229	0.037	105.000	42.315	47.840	47.905	50.440	23.610	6.165	3.723	87.905	-0.051	-0.059	NaN	NaN	NaN	NaN	NaN	NaN	NaN	NaN	NaN	NaN	NaN	NaN	NaN	NaN	NaN	NaN	NaN	NaN	NaN	NaN	NaN	NaN	NaN	NaN	NaN	NaN	NaN	NaN	NaN	NaN	NaN	NaN	NaN	NaN	NaN	NaN	NaN	NaN	NaN	NaN	NaN	NaN	NaN	NaN	NaN	NaN	NaN	NaN	NaN
106	105.000	106.000	40.755	33.345	47.840	24.375	32.058	11.431	11.428	366.375	0.091	0.142	0.051	106.000	39.195	32.630	40.950	22.555	31.730	10.227	9.323	295.826	0.042	NaN	-0.064	NaN	NaN	NaN	NaN	NaN	NaN	NaN	NaN	NaN	NaN	NaN	NaN	106.000	40.430	41.080	45.500	39.910	26.075	5.203	4.502	117.396	0.086	-0.078	-0.253	106.000	34.450	41.210	30.485	39.585	21.984	4.285	-1.050	-23.073	-0.111	-0.025	-0.060	106.000	42.315	46.735	49.465	43.940	24.203	7.677	7.587	183.623	-0.056	-0.121	-0.061	106.000	42.315	47.905	47.970	50.440	23.638	6.197	3.829	90.512	0.106	0.059	0.027	NaN	NaN	NaN	NaN	NaN	NaN	NaN	NaN	NaN	NaN	NaN	NaN	NaN	NaN	NaN	NaN	NaN	NaN	NaN	NaN	NaN	NaN	NaN	NaN	NaN	NaN	NaN	NaN	NaN	NaN	NaN	NaN	NaN	NaN	NaN	NaN	NaN	NaN	NaN	NaN	NaN	NaN	NaN	NaN	NaN	NaN	NaN	NaN
107	106.000	107.000	40.755	33.345	47.840	24.310	31.928	11.482	11.480	366.527	0.051	0.051	NaN	107.000	39.195	32.630	40.950	22.555	31.603	10.227	9.333	294.943	0.009	NaN	NaN	NaN	NaN	NaN	NaN	NaN	NaN	NaN	NaN	NaN	NaN	NaN	NaN	107.000	40.495	41.080	45.435	39.910	25.983	5.077	4.408	114.523	-0.095	-0.063	0.063	107.000	34.320	41.145	30.485	39.585	21.830	4.140	-0.986	-21.526	0.063	NaN	0.145	107.000	42.315	46.735	49.400	43.940	24.058	7.616	7.530	181.160	-0.057	-0.060	NaN	107.000	42.185	47.775	47.905	50.440	23.438	6.310	3.788	88.784	-0.041	-0.059	-0.173	NaN	NaN	NaN	NaN	NaN	NaN	NaN	NaN	NaN	NaN	NaN	NaN	NaN	NaN	NaN	NaN	NaN	NaN	NaN	NaN	NaN	NaN	NaN	NaN	NaN	NaN	NaN	NaN	NaN	NaN	NaN	NaN	NaN	NaN	NaN	NaN	NaN	NaN	NaN	NaN	NaN	NaN	NaN	NaN	NaN	NaN	NaN	NaN
108	107.000	108.000	40.755	33.345	47.970	24.180	31.980	11.664	11.662	372.937	0.182	0.183	NaN	108.000	39.195	32.695	40.950	22.555	31.603	10.291	9.387	296.646	0.054	NaN	-0.064	NaN	NaN	NaN	NaN	NaN	NaN	NaN	NaN	NaN	NaN	NaN	NaN	108.000	40.365	41.080	45.565	39.845	25.933	5.345	4.628	120.015	0.220	0.142	-0.126	108.000	34.320	41.210	30.550	39.585	21.830	4.105	-0.895	-19.545	0.091	-0.060	-0.026	108.000	42.185	46.800	49.400	43.940	23.946	7.761	7.672	183.711	0.142	NaN	-0.145	108.000	42.315	47.905	47.905	50.440	23.523	6.138	3.759	88.425	-0.029	NaN	0.172	NaN	NaN	NaN	NaN	NaN	NaN	NaN	NaN	NaN	NaN	NaN	NaN	NaN	NaN	NaN	NaN	NaN	NaN	NaN	NaN	NaN	NaN	NaN	NaN	NaN	NaN	NaN	NaN	NaN	NaN	NaN	NaN	NaN	NaN	NaN	NaN	NaN	NaN	NaN	NaN	NaN	NaN	NaN	NaN	NaN	NaN	NaN	NaN
109	108.000	109.000	41.340	32.500	47.970	24.180	32.864	10.639	10.634	349.492	-1.027	NaN	1.025	109.000	39.130	32.890	40.950	22.555	31.261	10.494	9.574	299.307	0.188	NaN	-0.203	NaN	NaN	NaN	NaN	NaN	NaN	NaN	NaN	NaN	NaN	NaN	NaN	109.000	40.430	41.080	45.630	39.845	25.844	5.345	4.638	119.855	0.010	0.063	0.063	109.000	34.255	41.145	30.485	39.520	21.701	4.105	-0.883	-19.160	0.012	0.085	0.085	109.000	42.315	46.735	49.400	43.940	23.970	7.616	7.531	180.517	-0.141	NaN	0.145	109.000	42.380	47.905	47.905	50.440	23.462	6.079	3.725	87.403	-0.034	NaN	0.059	NaN	NaN	NaN	NaN	NaN	NaN	NaN	NaN	NaN	NaN	NaN	NaN	NaN	NaN	NaN	NaN	NaN	NaN	NaN	NaN	NaN	NaN	NaN	NaN	NaN	NaN	NaN	NaN	NaN	NaN	NaN	NaN	NaN	NaN	NaN	NaN	NaN	NaN	NaN	NaN	NaN	NaN	NaN	NaN	NaN	NaN	NaN	NaN
110	109.000	110.000	41.080	32.890	48.035	24.050	32.591	11.248	11.245	366.489	0.611	0.142	-0.467	110.000	39.130	33.020	40.950	22.490	31.351	10.686	9.733	305.155	0.159	0.064	-0.128	NaN	NaN	NaN	NaN	NaN	NaN	NaN	NaN	NaN	NaN	NaN	NaN	110.000	40.495	41.080	45.695	39.845	26.072	5.345	4.632	120.772	-0.005	0.063	0.063	110.000	34.255	41.145	30.485	39.585	21.898	4.080	-0.925	-20.246	-0.042	-0.025	NaN	110.000	42.315	46.735	49.465	43.940	24.124	7.677	7.581	182.875	0.050	0.061	NaN	110.000	42.315	47.840	47.905	50.440	23.584	6.165	3.705	87.373	-0.020	NaN	-0.086	NaN	NaN	NaN	NaN	NaN	NaN	NaN	NaN	NaN	NaN	NaN	NaN	NaN	NaN	NaN	NaN	NaN	NaN	NaN	NaN	NaN	NaN	NaN	NaN	NaN	NaN	NaN	NaN	NaN	NaN	NaN	NaN	NaN	NaN	NaN	NaN	NaN	NaN	NaN	NaN	NaN	NaN	NaN	NaN	NaN	NaN	NaN	NaN
111	110.000	111.000	41.015	32.955	48.100	24.050	32.397	11.380	11.372	368.424	0.127	0.040	-0.091	111.000	39.195	33.085	40.950	22.555	31.242	10.675	9.720	303.668	-0.014	-0.064	-0.053	NaN	NaN	NaN	NaN	NaN	NaN	NaN	NaN	NaN	NaN	NaN	NaN	111.000	40.430	41.080	45.760	39.845	25.882	5.471	4.698	121.587	0.066	0.063	-0.063	111.000	34.385	41.210	30.485	39.520	21.822	4.250	-0.874	-19.080	0.050	0.026	-0.145	111.000	42.380	46.800	49.335	44.005	23.956	7.496	7.408	177.463	-0.173	-0.145	0.036	111.000	42.315	47.905	47.905	50.440	23.355	6.138	3.710	86.642	0.005	NaN	0.027	NaN	NaN	NaN	NaN	NaN	NaN	NaN	NaN	NaN	NaN	NaN	NaN	NaN	NaN	NaN	NaN	NaN	NaN	NaN	NaN	NaN	NaN	NaN	NaN	NaN	NaN	NaN	NaN	NaN	NaN	NaN	NaN	NaN	NaN	NaN	NaN	NaN	NaN	NaN	NaN	NaN	NaN	NaN	NaN	NaN	NaN	NaN	NaN
112	111.000	112.000	41.080	33.020	48.165	23.920	32.292	11.533	11.530	372.324	0.158	0.143	-0.011	112.000	39.130	33.215	40.950	22.555	31.008	10.814	9.864	305.856	0.144	NaN	-0.139	NaN	NaN	NaN	NaN	NaN	NaN	NaN	NaN	NaN	NaN	NaN	NaN	112.000	40.495	41.080	45.760	39.845	25.836	5.408	4.656	120.294	-0.042	NaN	0.063	112.000	34.320	41.210	30.550	39.585	21.694	4.105	-0.840	-18.214	0.035	-0.085	0.060	112.000	42.315	46.670	49.270	44.005	23.878	7.448	7.335	175.143	-0.073	-0.061	-0.014	112.000	42.315	47.905	47.970	50.505	23.266	6.224	3.742	87.056	0.032	0.086	NaN	NaN	NaN	NaN	NaN	NaN	NaN	NaN	NaN	NaN	NaN	NaN	NaN	NaN	NaN	NaN	NaN	NaN	NaN	NaN	NaN	NaN	NaN	NaN	NaN	NaN	NaN	NaN	NaN	NaN	NaN	NaN	NaN	NaN	NaN	NaN	NaN	NaN	NaN	NaN	NaN	NaN	NaN	NaN	NaN	NaN	NaN	NaN	NaN
113	112.000	113.000	41.470	32.110	48.230	23.855	32.852	10.670	10.657	350.109	-0.872	0.091	0.951	113.000	39.065	33.150	40.950	22.490	30.612	10.825	9.884	302.578	0.021	0.064	0.053	NaN	NaN	NaN	NaN	NaN	NaN	NaN	NaN	NaN	NaN	NaN	NaN	113.000	40.300	41.080	45.825	39.845	25.334	5.661	4.861	123.146	0.205	0.063	-0.190	113.000	34.255	41.080	30.485	39.585	21.354	4.056	-0.961	-20.517	-0.121	0.060	0.108	113.000	42.315	46.800	49.205	44.005	23.526	7.435	7.368	173.326	0.033	-0.060	-0.049	113.000	42.315	47.905	47.905	50.440	22.996	6.138	3.793	87.234	0.052	-0.086	NaN	NaN	NaN	NaN	NaN	NaN	NaN	NaN	NaN	NaN	NaN	NaN	NaN	NaN	NaN	NaN	NaN	NaN	NaN	NaN	NaN	NaN	NaN	NaN	NaN	NaN	NaN	NaN	NaN	NaN	NaN	NaN	NaN	NaN	NaN	NaN	NaN	NaN	NaN	NaN	NaN	NaN	NaN	NaN	NaN	NaN	NaN	NaN	NaN
114	113.000	114.000	41.535	32.110	48.360	23.725	32.813	10.812	10.800	354.368	0.142	0.183	0.041	114.000	39.130	33.345	40.950	22.555	30.414	10.942	9.947	302.535	0.063	-0.064	-0.181	NaN	NaN	NaN	NaN	NaN	NaN	NaN	NaN	NaN	NaN	NaN	NaN	114.000	40.560	41.015	45.825	39.845	25.474	5.393	4.632	117.992	-0.229	NaN	0.268	114.000	34.385	41.080	30.485	39.520	21.354	4.200	-0.983	-20.990	-0.022	0.024	-0.121	114.000	42.250	46.800	49.205	44.005	23.357	7.496	7.420	173.297	0.052	NaN	-0.060	114.000	42.315	47.905	47.905	50.440	22.881	6.138	3.781	86.507	-0.013	NaN	NaN	NaN	NaN	NaN	NaN	NaN	NaN	NaN	NaN	NaN	NaN	NaN	NaN	NaN	NaN	NaN	NaN	NaN	NaN	NaN	NaN	NaN	NaN	NaN	NaN	NaN	NaN	NaN	NaN	NaN	NaN	NaN	NaN	NaN	NaN	NaN	NaN	NaN	NaN	NaN	NaN	NaN	NaN	NaN	NaN	NaN	NaN	NaN	NaN
115	114.000	115.000	40.820	33.410	48.425	23.660	31.737	12.365	12.358	392.203	1.558	0.091	-1.465	115.000	39.065	33.410	40.950	22.555	30.738	11.017	10.103	310.559	0.156	NaN	-0.075	115.000	43.875	34.970	49.140	26.455	32.448	10.011	9.851	319.642	9.851	NaN	0.200	115.000	40.430	41.015	45.890	39.780	25.693	5.598	4.750	122.043	0.118	0.078	-0.127	115.000	34.320	41.145	30.485	39.520	21.670	4.165	-0.806	-17.462	0.177	NaN	0.034	115.000	42.250	46.800	48.945	44.135	23.544	7.206	7.102	167.209	-0.318	-0.290	NaN	115.000	42.315	47.840	47.905	50.440	23.075	6.165	3.614	83.402	-0.166	NaN	-0.027	NaN	NaN	NaN	NaN	NaN	NaN	NaN	NaN	NaN	NaN	NaN	NaN	NaN	NaN	NaN	NaN	NaN	NaN	NaN	NaN	NaN	NaN	NaN	NaN	NaN	NaN	NaN	NaN	NaN	NaN	NaN	NaN	NaN	NaN	NaN	NaN	NaN	NaN	NaN	NaN	NaN	NaN	NaN	NaN	NaN	NaN	NaN	NaN
116	115.000	116.000	41.340	32.305	48.490	23.530	32.530	11.319	11.302	367.638	-1.056	0.142	1.185	116.000	39.065	33.605	40.950	22.490	30.161	11.274	10.275	309.887	0.171	0.064	-0.192	116.000	44.070	34.905	49.140	26.325	32.247	9.966	9.746	314.289	-0.105	0.112	0.155	116.000	40.430	41.015	45.955	39.780	25.328	5.661	4.829	122.310	0.079	0.063	NaN	116.000	34.255	41.145	30.485	39.520	21.221	4.105	-0.797	-16.921	0.008	NaN	0.060	116.000	42.315	46.735	48.945	44.200	23.343	7.098	6.996	163.317	-0.106	-0.023	0.084	116.000	42.315	47.840	47.970	50.440	22.800	6.224	3.751	85.527	0.137	0.059	NaN	NaN	NaN	NaN	NaN	NaN	NaN	NaN	NaN	NaN	NaN	NaN	NaN	NaN	NaN	NaN	NaN	NaN	NaN	NaN	NaN	NaN	NaN	NaN	NaN	NaN	NaN	NaN	NaN	NaN	NaN	NaN	NaN	NaN	NaN	NaN	NaN	NaN	NaN	NaN	NaN	NaN	NaN	NaN	NaN	NaN	NaN	NaN	NaN
117	116.000	117.000	41.405	32.240	48.490	23.530	32.583	11.228	11.210	365.251	-0.092	NaN	0.091	117.000	39.065	33.605	40.950	22.555	30.124	11.210	10.229	308.138	-0.046	-0.064	NaN	117.000	44.265	34.840	49.140	26.390	32.383	9.755	9.515	308.129	-0.231	-0.056	0.154	117.000	40.560	41.015	46.020	39.780	25.375	5.598	4.787	121.481	-0.042	0.063	0.127	117.000	34.320	41.145	30.485	39.585	21.221	4.140	-0.888	-18.839	-0.090	-0.024	-0.060	117.000	42.250	46.800	48.750	44.265	23.198	6.977	6.884	159.697	-0.112	-0.205	-0.084	117.000	42.250	47.840	47.905	50.375	22.685	6.197	3.769	85.493	0.017	-0.086	-0.059	NaN	NaN	NaN	NaN	NaN	NaN	NaN	NaN	NaN	NaN	NaN	NaN	NaN	NaN	NaN	NaN	NaN	NaN	NaN	NaN	NaN	NaN	NaN	NaN	NaN	NaN	NaN	NaN	NaN	NaN	NaN	NaN	NaN	NaN	NaN	NaN	NaN	NaN	NaN	NaN	NaN	NaN	NaN	NaN	NaN	NaN	NaN	NaN
118	117.000	118.000	41.405	32.110	48.685	23.465	32.378	11.302	11.267	364.808	0.057	0.175	0.099	118.000	39.000	33.670	40.950	22.490	29.728	11.349	10.392	308.940	0.163	0.064	-0.075	118.000	44.395	34.710	49.140	26.455	32.247	9.522	9.287	299.481	-0.228	-0.056	0.177	118.000	40.495	41.015	45.890	39.715	25.006	5.549	4.776	119.432	-0.011	-0.111	-0.063	118.000	34.255	41.080	30.485	39.585	20.931	4.056	-0.868	-18.163	0.020	NaN	0.084	118.000	42.250	46.800	48.620	44.330	22.875	6.832	6.741	154.196	-0.143	-0.145	NaN	118.000	42.315	47.905	47.970	50.440	22.391	6.197	3.798	85.049	0.030	0.086	0.086	NaN	NaN	NaN	NaN	NaN	NaN	NaN	NaN	NaN	NaN	NaN	NaN	NaN	NaN	NaN	NaN	NaN	NaN	NaN	NaN	NaN	NaN	NaN	NaN	NaN	NaN	NaN	NaN	NaN	NaN	NaN	NaN	NaN	NaN	NaN	NaN	NaN	NaN	NaN	NaN	NaN	NaN	NaN	NaN	NaN	NaN	NaN	NaN
119	118.000	119.000	41.470	32.110	48.815	23.335	32.220	11.443	11.414	367.744	0.147	0.183	0.042	119.000	39.000	33.735	40.950	22.490	29.475	11.413	10.432	307.500	0.040	NaN	-0.064	119.000	44.460	34.645	49.140	26.390	32.151	9.489	9.237	296.988	-0.050	0.057	0.089	119.000	40.495	41.015	46.020	39.715	24.824	5.676	4.880	121.152	0.104	0.127	NaN	119.000	34.255	41.015	30.485	39.520	20.786	4.056	-0.871	-18.113	-0.004	0.024	0.024	119.000	42.315	46.735	48.555	44.395	22.809	6.664	6.568	149.819	-0.172	-0.084	0.084	119.000	42.315	47.905	47.970	50.440	22.242	6.197	3.830	85.176	0.031	NaN	NaN	NaN	NaN	NaN	NaN	NaN	NaN	NaN	NaN	NaN	NaN	NaN	NaN	NaN	NaN	NaN	NaN	NaN	NaN	NaN	NaN	NaN	NaN	NaN	NaN	NaN	NaN	NaN	NaN	NaN	NaN	NaN	NaN	NaN	NaN	NaN	NaN	NaN	NaN	NaN	NaN	NaN	NaN	NaN	NaN	NaN	NaN	NaN	NaN
120	119.000	120.000	41.275	32.305	48.945	23.140	32.378	11.951	11.917	385.848	0.503	0.233	-0.275	120.000	39.065	33.865	40.950	22.490	29.836	11.530	10.493	313.068	0.061	NaN	-0.118	120.000	44.395	34.645	49.140	26.325	32.526	9.578	9.340	303.803	0.103	0.056	-0.032	120.000	41.015	40.950	46.020	39.780	25.655	5.140	4.433	113.729	-0.447	-0.015	0.521	120.000	34.255	41.080	30.550	39.585	21.165	3.995	-0.831	-17.593	0.040	-0.085	-0.024	120.000	42.250	46.800	48.555	44.395	23.086	6.748	6.647	153.448	0.078	NaN	-0.084	120.000	42.120	47.840	47.970	50.505	22.457	6.428	3.850	86.460	0.021	0.027	-0.204	NaN	NaN	NaN	NaN	NaN	NaN	NaN	NaN	NaN	NaN	NaN	NaN	NaN	NaN	NaN	NaN	NaN	NaN	NaN	NaN	NaN	NaN	NaN	NaN	NaN	NaN	NaN	NaN	NaN	NaN	NaN	NaN	NaN	NaN	NaN	NaN	NaN	NaN	NaN	NaN	NaN	NaN	NaN	NaN	NaN	NaN	NaN	NaN
121	120.000	121.000	41.340	32.305	48.945	23.075	32.416	11.959	11.933	386.828	0.016	0.050	0.041	121.000	39.065	33.995	41.015	22.490	29.728	11.669	10.625	315.874	0.132	0.011	-0.128	121.000	44.330	34.710	49.205	26.390	32.434	9.643	9.428	305.801	0.088	-0.023	-0.089	121.000	40.820	40.950	45.825	39.780	25.514	5.140	4.419	112.753	-0.014	-0.190	-0.190	121.000	34.255	41.080	30.485	39.520	21.165	4.080	-0.814	-17.221	0.018	0.085	NaN	121.000	42.315	46.800	48.620	44.330	23.142	6.772	6.682	154.627	0.035	0.084	0.061	121.000	42.315	47.905	47.970	50.440	22.597	6.197	3.774	85.290	-0.076	-0.027	0.205	NaN	NaN	NaN	NaN	NaN	NaN	NaN	NaN	NaN	NaN	NaN	NaN	NaN	NaN	NaN	NaN	NaN	NaN	NaN	NaN	NaN	NaN	NaN	NaN	NaN	NaN	NaN	NaN	NaN	NaN	NaN	NaN	NaN	NaN	NaN	NaN	NaN	NaN	NaN	NaN	NaN	NaN	NaN	NaN	NaN	NaN	NaN	NaN
